Fp1 Fp2 F3 F4 C3 C4 P3 P4 O1 O2 F7 F8 T7 T8 P7 P8 Fz Pz FC1 FC2 FC5 FC6 FT9 FT10 TP9 TP10 PO9 PO10 EOG EKG1 EKG2 EKG3 AF3 AF4 F1 F2 CP1 CP2 PO3 PO4 O9 O10 FC3 FC4 AF7 AF8 F5 F6 C5 C6 CP5 CP6 PO7 PO8 FT7 FT8 TP7 TP8 F9 F10 P9 P10 FCz Oz Cz HEOG VEOG EKG
-2,342 -7,262 -0,629 -2,921 1,447 3,063 -12,883 -14,771 -25,578 -20,144 -17,601 -11,969 -8,931 -5,384 -22,252 -15,607 4,049 -16,665 -9,563 -13,009 -10,024 -12,476 -17,224 -16,262 -19,080 -16,998 -50,181 -36,875 -0,777 -38,843 -176,936 -81,795 -15,938 -22,125 -9,400 -16,043 -20,747 -16,604 -26,164 -27,359 -49,382 -36,025 -13,170 -10,396 -22,001 -18,464 -12,673 -7,166 -9,948 -2,908 -11,775 -9,131 -20,884 -15,420 -4,487 0,342 -7,525 -1,895 -1,994 3,287 4,931 -5,514 11,703 -13,452 0,000 84,427 -7,884 -40,728
4,846 2,089 -0,668 1,976 -0,169 -2,165 -12,736 -15,303 -22,451 -21,833 -5,511 -4,400 -6,776 -5,638 -18,840 -16,557 11,115 -16,290 -0,030 -0,018 -5,522 -5,837 -3,616 -6,861 -11,504 -8,104 -36,345 -23,899 13,569 -63,253 -103,735 -49,408 20,629 17,078 23,145 18,448 5,350 6,791 -6,467 -8,987 -27,847 -18,540 8,004 8,268 1,055 2,699 3,646 6,431 -5,783 -5,157 -15,017 -14,502 -23,590 -26,452 -7,479 -10,487 -14,532 -18,586 -4,266 -11,292 -16,891 -22,094 -2,446 -31,357 0,000 68,707 -49,333 6,156
19,801 16,818 -4,087 8,172 -5,927 -10,204 -9,783 -13,562 -23,150 -20,379 15,500 12,103 8,607 -4,492 -9,291 -10,723 18,459 -1,312 16,288 19,428 14,072 14,811 25,300 18,152 2,949 10,471 -6,257 4,002 53,712 -27,521 -10,149 26,228 40,107 35,420 34,392 28,326 17,007 14,702 7,604 3,509 -12,220 -10,257 17,442 20,499 23,184 27,361 15,439 19,417 7,112 -3,359 -5,573 -7,242 -20,060 -22,195 5,659 -4,827 -14,175 -17,238 7,796 -8,027 -37,034 -20,311 -3,184 -29,644 0,000 59,366 -104,243 50,166
23,655 23,396 -5,535 22,723 -5,556 1,878 -6,326 -4,950 -17,168 -11,279 8,745 23,069 1,207 5,041 -18,673 -4,544 14,688 4,380 7,286 15,759 4,748 19,839 17,131 23,451 -9,434 10,040 -19,558 -2,543 41,255 -12,243 -3,690 38,153 7,008 6,256 2,162 2,036 -5,469 -3,698 -6,174 -5,092 -29,012 -20,666 -6,137 14,402 3,509 23,319 -1,703 20,440 -0,092 5,458 -8,192 5,657 -19,507 -6,845 8,322 17,233 -18,777 6,638 15,594 15,337 -39,076 -0,968 6,723 -8,762 0,000 41,372 -76,484 58,317
7,198 14,159 -4,852 32,792 4,039 20,975 -3,368 3,277 -7,501 -3,117 -18,617 15,231 -17,313 5,942 -32,489 -6,973 2,103 -9,375 -22,005 -10,065 -29,758 -3,491 -24,054 -5,854 -46,029 -20,771 -67,000 -43,920 -8,897 -48,333 -45,844 7,643 -30,315 -22,602 -24,385 -16,792 -22,232 -15,351 -21,479 -15,797 -45,835 -35,481 -30,277 3,396 -35,814 -0,629 -29,630 10,614 -17,329 5,804 -21,289 3,364 -22,195 -5,715 -7,058 19,306 -20,338 5,616 5,450 20,523 -28,963 -2,293 3,403 -5,017 0,000 16,180 1,653 63,173
-6,489 7,624 -9,345 31,336 4,202 21,618 -3,735 2,278 -9,221 -6,138 -29,867 8,426 -21,343 -0,654 -37,353 -11,935 -1,548 -20,111 -33,484 -19,166 -44,745 -18,451 -42,104 -22,307 -57,580 -38,879 -81,724 -58,870 -38,344 -70,223 -26,601 21,777 -18,974 -6,555 -9,049 0,524 -7,079 -0,121 -11,531 -7,011 -35,593 -30,748 -24,872 8,771 -41,367 -2,866 -35,669 9,051 -22,916 -0,032 -30,483 -5,424 -29,010 -18,236 -21,519 2,548 -24,752 -15,093 -11,813 2,169 -33,780 -25,911 -14,147 -24,143 0,000 1,361 8,915 87,184
0,353 16,333 -20,831 30,045 -10,561 7,536 -12,780 -4,505 -19,932 -19,945 -15,528 23,233 -14,551 3,386 -32,324 -10,119 8,365 -12,785 -15,214 1,307 -26,603 3,621 -18,529 3,308 -32,575 -19,217 -55,683 -32,829 -5,176 -49,631 42,324 73,751 18,272 30,670 20,069 27,952 13,399 20,647 4,227 7,046 -24,117 -23,221 -8,247 27,084 -14,569 30,550 -21,176 25,593 -15,218 1,312 -28,634 -3,104 -36,559 -26,731 -22,395 -1,917 -43,224 -21,491 -18,962 -7,790 -50,977 -45,453 -25,094 -46,752 0,000 1,813 -63,807 112,768
16,224 22,335 -27,128 27,905 -22,787 -1,575 -23,051 -10,041 -29,787 -28,740 0,137 32,770 -11,100 7,875 -27,738 -8,961 17,169 -0,504 4,080 20,788 -5,019 28,197 9,984 28,274 -12,027 0,501 -31,626 -7,322 32,429 -15,025 65,735 82,689 25,430 31,548 18,205 21,748 5,832 14,970 -3,038 1,298 -31,604 -27,684 -8,181 29,763 4,486 46,533 -9,853 33,493 -10,317 7,555 -22,561 5,504 -37,791 -19,351 -9,302 10,510 -44,445 -7,492 -4,404 2,595 -51,182 -32,317 -10,084 -40,194 0,000 22,392 -107,738 97,725
8,888 10,809 -25,546 21,827 -20,557 4,070 -23,858 -9,590 -28,039 -23,655 -10,657 20,748 -17,631 5,702 -33,189 -9,181 11,562 -3,238 -2,014 13,327 -12,261 22,179 -0,152 14,968 -23,509 -11,582 -42,125 -18,843 21,956 -29,620 20,070 32,289 -9,526 -4,805 -11,390 -7,626 -18,327 -6,136 -23,177 -14,870 -45,292 -39,075 -24,026 14,441 -13,695 22,899 -20,673 20,557 -17,827 8,147 -23,420 6,498 -34,133 -13,429 -6,915 12,484 -22,603 5,632 2,565 11,574 -34,111 -19,379 4,302 -19,082 0,000 31,928 -68,594 73,134
-15,111 -6,366 -23,332 9,288 -11,874 8,699 -21,229 -10,357 -24,610 -17,944 -30,936 -2,103 -25,330 -3,413 -47,259 -12,099 -0,355 -18,198 -21,128 -7,902 -31,868 -1,776 -29,392 -16,230 -43,870 -24,570 -64,481 -41,880 -12,862 -65,294 -24,002 -2,682 -23,450 -15,672 -17,549 -10,009 -16,746 -5,105 -22,310 -13,268 -41,427 -39,700 -25,375 6,834 -34,486 -2,538 -30,094 5,690 -24,396 0,961 -29,803 -4,134 -36,713 -22,678 -20,013 -8,586 -30,033 -8,690 -13,856 -6,443 -36,148 -29,990 -11,004 -27,273 0,000 14,396 -23,488 63,386
-14,468 -3,951 -24,425 4,474 -13,420 0,287 -20,723 -12,983 -25,250 -16,984 -27,593 -2,788 -23,506 -9,694 -47,824 -14,468 -0,593 -21,206 -23,832 -11,627 -31,706 -11,002 -29,006 -21,030 -39,251 -16,545 -63,034 -36,723 -15,121 -52,969 -15,011 23,645 3,864 10,505 6,288 11,677 4,251 11,131 -4,403 1,930 -27,903 -26,473 -11,577 12,910 -21,745 6,316 -21,525 8,983 -21,010 -7,109 -31,374 -11,769 -39,687 -27,715 -24,954 -7,587 -46,257 -28,358 -21,641 -21,689 -50,323 -37,781 -27,315 -42,315 0,000 10,463 -42,946 64,033
7,293 11,183 -21,417 19,851 -15,229 1,913 -13,306 -4,843 -18,560 -12,454 -6,331 15,955 -10,548 -2,112 -27,126 -8,232 5,463 -5,881 -12,383 1,116 -17,754 3,434 -6,216 2,778 -23,095 -7,335 -43,322 -19,179 12,947 -4,832 10,897 75,391 13,879 18,391 10,347 14,063 7,160 12,743 1,479 8,227 -23,293 -19,975 -10,870 19,016 -6,449 24,589 -14,828 18,680 -12,493 0,360 -21,802 0,081 -29,964 -13,098 -10,699 5,350 -35,605 -11,936 -3,530 -2,451 -40,873 -21,711 -14,208 -26,189 0,000 44,369 -65,216 75,374
16,107 18,787 -14,827 42,813 -9,475 21,850 -3,377 11,261 -6,319 -0,745 0,194 34,054 -5,919 12,926 -11,546 3,873 4,407 5,046 -9,843 7,227 -19,867 19,227 -3,556 15,250 -24,051 -11,471 -41,512 -14,125 16,883 12,264 9,375 91,236 -20,997 -10,609 -20,775 -8,070 -16,452 -5,007 -13,652 -3,212 -30,901 -25,348 -29,081 17,267 -19,769 20,854 -26,641 24,867 -10,688 18,614 -14,107 20,927 -16,865 10,428 2,016 30,843 -10,734 23,698 19,217 28,696 -6,973 10,570 16,874 13,014 0,000 64,699 -36,948 95,410
4,104 13,439 -14,484 42,101 -5,223 25,469 -3,818 12,952 -5,805 2,547 -10,452 27,653 -7,982 14,128 -19,864 5,919 2,217 -2,686 -14,546 2,839 -27,975 11,497 -17,023 3,210 -29,822 -15,109 -50,386 -21,451 10,633 -10,656 -1,740 77,879 -35,941 -21,412 -29,463 -13,463 -24,156 -9,988 -22,683 -8,799 -32,832 -24,077 -32,820 12,749 -32,030 10,589 -33,617 21,817 -14,563 15,134 -17,425 18,399 -19,173 9,234 -2,382 28,484 -8,879 22,746 15,905 28,935 -0,531 11,268 21,331 17,783 0,000 67,223 -14,766 107,292
-12,193 0,291 -25,304 9,628 -15,477 -0,567 -17,431 -6,699 -19,882 -11,060 -20,946 4,002 -14,746 -6,487 -30,988 -5,031 4,601 -14,781 -11,922 0,715 -23,162 -1,243 -15,090 -8,730 -15,579 -5,910 -39,211 -17,173 31,029 -17,964 3,683 56,795 -1,786 7,234 0,000 8,624 -3,158 6,952 -9,726 2,497 -20,229 -14,816 -13,101 12,356 -17,755 12,547 -21,345 13,387 -16,530 -5,107 -24,585 -3,898 -30,282 -14,274 -17,217 -5,672 -25,267 -15,895 -11,858 -7,917 -28,995 -23,096 -10,463 -22,882 0,000 62,321 -45,349 72,566
-15,495 -11,804 -32,618 -16,854 -26,606 -20,830 -27,357 -22,158 -28,321 -21,053 -22,503 -11,896 -18,697 -17,185 -28,294 -10,356 6,672 -13,894 -6,485 0,322 -10,711 -3,812 -3,654 -6,835 1,818 0,627 -21,741 -6,379 43,486 -7,358 1,502 30,394 24,217 23,104 18,506 18,148 10,726 15,864 2,695 11,375 -8,135 -8,966 -0,665 9,083 -0,464 12,081 -9,603 3,801 -13,838 -12,534 -21,729 -14,382 -32,489 -25,036 -23,712 -24,846 -28,475 -36,067 -30,318 -35,225 -47,138 -46,836 -35,731 -53,151 0,000 47,329 -70,626 20,900
-6,214 -7,465 -21,010 -5,925 -19,286 -7,713 -19,280 -13,172 -17,686 -10,742 -14,314 -3,993 -11,482 -4,493 -20,841 -3,794 3,543 -5,393 -7,514 -1,560 -9,446 -0,677 -4,241 -2,925 -5,361 -5,494 -24,639 -8,978 24,147 1,971 -16,256 14,057 7,213 5,675 2,593 3,608 -1,011 4,759 -2,037 4,249 -11,722 -10,956 -9,840 3,922 -7,711 1,840 -14,589 -0,124 -11,494 -4,099 -14,772 -5,688 -23,932 -10,849 -15,970 -8,704 -19,198 -14,635 -19,337 -21,181 -33,008 -27,843 -19,984 -32,663 0,000 34,837 -49,191 2,224
3,155 6,569 -7,101 24,395 -4,084 16,662 -2,184 7,887 -0,415 5,505 -7,473 12,955 -4,494 9,982 -16,602 2,004 -0,067 -0,278 -10,984 0,736 -19,884 2,787 -14,743 -2,624 -22,217 -15,392 -35,136 -15,023 -3,726 8,437 -12,155 43,618 -21,369 -12,721 -17,444 -7,282 -12,665 -3,763 -9,682 -1,012 -16,556 -12,561 -21,062 5,242 -26,385 -2,413 -25,249 5,759 -11,447 6,914 -13,344 6,903 -14,482 6,845 -5,564 14,251 -15,822 11,868 2,303 8,633 -4,412 6,190 12,573 9,452 0,000 32,498 -31,396 41,261
-3,300 8,023 -14,436 31,793 -5,052 16,755 0,774 12,357 0,012 4,241 -11,316 15,977 -10,256 7,936 -16,784 2,609 0,737 -0,274 -12,118 5,981 -27,284 4,453 -17,661 -0,731 -25,932 -16,758 -35,432 -11,534 -1,623 8,464 12,388 97,983 -24,490 -8,989 -15,268 -2,679 -5,953 3,282 -6,269 5,797 -14,291 -8,538 -18,719 14,649 -28,911 8,982 -26,276 15,054 -14,197 7,177 -17,572 10,218 -16,787 3,391 -6,401 13,150 -13,631 8,429 4,449 8,105 -6,495 3,845 13,151 14,023 0,000 35,459 -55,192 99,668
-10,901 1,507 -27,518 15,517 -15,529 1,678 -12,075 -0,553 -13,711 -6,823 -15,849 9,704 -16,194 0,254 -21,332 -1,401 4,180 -3,209 -11,537 5,067 -21,731 5,652 -13,576 0,918 -19,102 -6,853 -29,033 -6,390 33,213 15,162 7,373 111,479 -3,242 7,393 0,366 8,284 4,738 12,180 0,911 10,665 -12,666 -6,559 -12,115 18,608 -16,506 21,237 -20,224 16,045 -13,090 1,955 -19,901 5,692 -24,937 -7,054 -13,153 0,305 -27,496 -5,062 -8,741 -6,364 -27,818 -15,472 -8,796 -12,778 0,000 36,575 -76,284 97,197
-8,865 0,424 -23,415 9,174 -14,638 0,642 -15,914 -6,810 -18,343 -8,934 -19,620 3,685 -17,491 -4,092 -22,258 -5,963 3,247 -7,695 -15,095 -3,587 -20,068 -0,953 -14,143 -7,295 -19,094 -5,326 -36,921 -14,453 51,720 6,879 -37,868 63,993 -0,033 3,726 -1,611 3,622 -2,632 4,852 -5,082 1,077 -15,502 -9,631 -17,814 9,698 -19,414 10,692 -22,004 7,731 -13,179 -0,784 -19,575 1,276 -25,898 -5,435 -13,647 -1,301 -28,468 -7,897 -12,849 -5,055 -26,824 -13,169 -12,053 -20,181 0,000 37,576 -43,997 53,815
-6,900 -1,167 -5,221 22,832 2,649 20,342 -0,585 8,982 -2,526 2,226 -22,078 3,153 -13,166 1,639 -18,125 0,298 -4,597 -8,638 -17,903 -8,760 -31,558 -10,024 -28,373 -17,869 -31,599 -19,176 -49,434 -27,634 19,060 -19,030 -64,928 15,385 -23,415 -18,453 -18,064 -11,158 -14,074 -3,827 -12,695 -8,590 -17,477 -12,887 -26,149 0,765 -41,806 -14,841 -33,731 -2,439 -18,310 1,168 -19,094 0,960 -19,349 0,212 -16,160 4,552 -10,631 -1,011 -15,163 -0,213 -9,472 -1,594 -1,656 -7,260 0,000 24,465 6,780 32,788
-6,083 1,705 -1,615 29,478 6,552 24,038 6,768 16,515 4,969 4,849 -19,156 9,117 -9,482 8,391 -14,966 2,408 -5,130 -6,999 -11,528 -0,993 -32,173 -4,863 -28,212 -10,246 -21,856 -15,689 -40,735 -17,260 2,696 -14,931 -30,219 33,394 -24,344 -14,547 -13,702 -5,390 -6,829 2,778 -7,532 -3,469 -15,104 -7,543 -19,966 6,149 -42,060 -10,667 -32,659 1,568 -19,280 3,215 -19,030 2,080 -18,121 -1,381 -18,941 4,671 -12,443 0,686 -17,980 -1,439 -3,823 -1,300 -1,512 -6,248 0,000 5,013 -9,797 46,139
-7,435 -2,638 -23,406 8,764 -13,353 -1,615 -9,695 -2,880 -10,541 -9,596 -16,043 6,047 -10,465 -2,089 -17,566 -4,251 4,406 -4,936 -2,270 8,343 -15,626 4,768 -6,227 3,972 2,143 2,224 -18,270 4,362 28,806 14,682 32,271 79,242 7,283 12,791 10,700 12,713 9,634 16,067 4,679 8,455 -10,439 1,496 -5,838 15,331 -12,834 15,830 -18,196 9,186 -13,665 -2,975 -19,360 -2,959 -22,155 -13,458 -19,868 -12,021 -24,473 -14,887 -23,776 -16,573 -22,458 -24,509 -18,361 -27,583 0,000 26,840 -82,185 56,690
-10,309 -6,334 -37,878 -9,901 -30,167 -20,267 -27,649 -23,453 -28,368 -23,942 -14,865 1,076 -12,718 -13,588 -19,765 -10,578 11,143 -4,748 -0,639 8,721 -2,400 12,259 7,375 8,736 8,416 8,227 -7,127 6,643 54,293 30,098 50,754 80,929 28,789 29,201 23,252 22,264 15,778 20,279 10,736 11,641 -7,309 -1,517 0,548 18,651 8,266 31,923 -8,175 13,651 -10,038 -6,026 -18,756 -8,058 -26,547 -22,754 -19,414 -17,049 -33,822 -30,877 -26,654 -26,849 -38,767 -43,794 -30,210 -47,899 0,000 43,772 -119,183 37,624
-9,600 -2,604 -25,834 -1,220 -19,785 -9,750 -18,950 -16,283 -21,174 -17,818 -14,361 1,315 -11,670 -9,849 -12,765 -12,053 6,174 -4,306 -7,032 0,959 -8,576 4,554 -2,101 0,265 2,632 -3,115 -20,795 -10,174 41,856 11,139 18,833 46,416 5,058 8,649 5,075 7,398 2,411 7,219 2,092 0,767 -14,457 -12,553 -7,820 10,025 -5,031 18,288 -14,653 9,395 -10,110 -3,416 -14,969 -5,589 -18,994 -14,997 -11,773 -5,095 -20,271 -17,898 -14,226 -9,016 -11,186 -23,926 -12,206 -29,294 0,000 22,403 -84,414 31,250
-4,061 3,078 -1,208 20,128 5,978 12,358 5,702 8,598 6,587 5,375 -9,948 5,285 1,531 0,995 -3,980 -3,191 -3,566 -3,554 -12,382 -5,903 -20,573 -11,060 -16,051 -11,534 -9,765 -12,609 -34,019 -20,730 14,678 -16,229 -18,686 24,391 -30,074 -22,873 -19,955 -15,031 -12,013 -7,214 -8,381 -6,497 -18,328 -12,777 -15,309 -0,426 -28,674 -6,924 -21,740 1,022 -5,294 -0,109 -4,763 4,006 -0,696 4,402 3,140 9,217 0,384 6,587 9,422 17,317 27,441 18,714 21,136 18,025 0,000 -11,453 -37,258 52,026
4,818 8,543 8,657 27,914 13,856 19,346 16,088 19,695 17,832 16,822 -2,179 9,983 7,897 8,985 -0,931 6,421 -2,944 -0,002 -9,851 -2,595 -19,817 -8,865 -13,591 -5,890 -7,778 -6,749 -27,763 -10,598 -2,897 -15,400 -28,213 34,143 -30,675 -25,890 -21,868 -16,915 -11,721 -6,592 -6,780 -2,371 -10,828 -5,302 -14,007 0,245 -28,613 -9,675 -17,193 1,140 -2,047 3,003 -1,179 10,700 6,236 13,985 9,220 14,510 -0,451 17,290 18,389 24,323 31,454 34,390 29,381 36,297 0,000 -36,585 -41,638 64,319
5,608 6,676 -3,620 15,098 0,318 8,768 4,639 10,603 8,082 9,869 -0,577 10,199 -2,654 8,234 -2,724 8,160 2,438 4,696 -4,402 2,711 -11,178 4,713 -0,185 6,451 5,096 4,945 -13,498 3,345 4,857 -4,605 -20,723 46,989 -4,674 -2,951 -2,957 -0,048 2,624 6,982 6,406 9,993 0,066 4,822 -7,229 9,295 -9,320 6,354 -10,188 6,593 -4,761 4,772 -6,528 8,544 -0,747 7,298 -0,420 6,585 -0,626 7,393 2,619 6,737 6,545 8,442 1,207 8,982 0,000 -26,499 -72,737 54,746
-1,767 -0,932 -14,675 -2,660 -8,826 -4,169 -7,104 -3,228 -2,995 -0,773 -2,813 2,186 -4,890 -4,279 -2,962 1,725 2,578 3,743 -2,350 2,416 -2,173 6,854 8,067 6,326 6,121 6,781 -5,291 3,597 17,802 -6,039 -25,515 36,944 18,138 17,332 16,242 15,173 16,427 18,343 17,509 17,759 10,267 9,893 2,472 12,597 4,949 13,789 -3,549 5,849 -2,797 -0,975 -7,144 -2,263 -9,922 -7,530 -9,847 -10,882 -8,672 -18,367 -16,313 -19,663 -24,001 -24,154 -28,571 -26,316 0,000 -2,713 -83,750 30,401
-8,113 -4,485 -14,753 -7,353 -6,948 -7,411 -6,217 -5,690 -3,359 -1,842 -5,995 -2,677 -3,859 -6,149 -2,852 0,664 2,017 -0,393 -3,240 1,291 -2,610 1,624 6,363 4,970 6,537 8,762 -6,848 2,814 8,030 -19,057 -24,910 24,247 17,059 18,126 17,414 16,803 18,202 19,206 18,802 18,265 12,530 12,920 6,984 11,305 3,505 10,619 -2,027 4,570 -2,930 -4,552 -6,600 -6,684 -10,911 -11,786 -12,192 -18,040 -15,697 -26,770 -20,048 -29,190 -27,892 -26,997 -33,424 -34,143 0,000 -9,027 -76,827 26,631
-3,261 -0,186 -7,909 1,238 -0,801 -2,924 -1,011 -0,533 2,131 4,047 -0,591 1,671 -0,134 -1,473 -6,017 3,594 3,364 -1,284 -3,201 1,596 -2,388 1,623 4,950 4,451 -1,397 10,121 -4,986 5,978 2,182 -31,781 -11,985 22,575 9,270 11,004 11,079 10,949 14,424 14,114 15,050 16,295 11,384 12,738 6,828 11,383 3,014 9,634 1,093 7,532 0,466 -1,896 -4,380 -0,852 -5,722 -4,547 -4,168 -6,715 -11,755 -11,136 -5,262 -14,116 -27,786 -8,434 -17,146 -15,041 0,000 -28,433 -74,971 45,785
7,125 7,437 0,147 9,961 3,509 2,101 1,586 4,645 3,505 5,995 7,413 7,563 4,217 3,825 -10,120 6,288 4,463 1,998 -1,438 1,926 0,482 5,311 4,280 3,824 -17,793 7,926 -5,253 3,940 -1,619 -35,077 -3,581 16,227 1,477 0,432 2,378 1,334 4,462 3,727 5,901 8,158 1,778 2,965 2,284 9,545 1,238 6,593 1,876 8,920 6,008 3,598 -0,576 8,442 -0,233 6,236 10,729 8,742 -5,400 11,702 13,323 7,300 -21,050 13,300 6,834 10,326 0,000 -50,603 -69,886 55,989
9,953 13,413 6,250 16,938 9,011 10,250 6,499 9,309 5,791 7,240 8,664 11,489 3,731 10,474 -7,237 7,078 4,258 4,504 -2,439 1,706 -1,482 6,043 1,464 4,574 -22,051 3,590 -15,524 -6,049 -19,778 -52,846 -3,637 8,318 -7,022 -6,195 -3,742 -3,221 -1,957 -1,524 2,273 3,697 -6,694 -3,583 -1,088 9,266 -5,118 3,532 -1,661 10,610 7,168 7,887 2,328 12,897 2,587 9,524 14,982 13,838 -4,507 18,928 17,977 17,018 -5,862 19,136 14,959 19,424 0,000 -69,167 -57,480 72,353
1,921 10,695 4,279 16,125 8,277 12,498 5,606 7,952 1,791 1,543 3,984 9,190 0,148 7,343 -10,443 3,338 3,539 0,103 -5,212 1,342 -5,229 6,794 -4,482 -2,827 -19,814 -6,256 -26,997 -15,907 -34,218 -63,730 -11,289 10,241 -7,295 -2,752 -1,277 2,114 0,200 2,325 3,622 2,902 -11,663 -10,265 -0,131 11,478 -8,002 3,386 -2,362 11,088 4,616 8,994 -0,676 8,971 -4,086 1,165 9,231 3,252 -9,728 6,753 10,495 8,096 -8,220 3,615 6,637 5,973 0,000 -100,312 -51,666 81,805
-1,371 4,785 -4,196 9,838 1,745 2,573 -0,523 0,473 -3,408 -5,464 0,116 4,979 -1,741 -2,280 -10,190 -4,715 4,665 -3,236 -6,070 0,500 -5,552 0,064 -3,030 -5,505 -12,037 -9,755 -23,784 -16,629 -32,319 -61,829 -16,856 23,137 1,085 4,633 5,632 7,421 5,752 7,504 6,996 5,095 -9,123 -10,982 1,633 11,857 -1,930 7,939 -2,041 9,259 3,514 1,171 -3,785 2,050 -8,229 -7,160 2,173 -0,411 -5,974 -7,375 0,913 -1,786 -13,852 -14,467 -6,002 -10,005 0,000 -95,309 -65,710 88,431
-0,064 2,535 -6,537 10,604 1,314 2,286 0,434 2,116 -1,448 -3,107 -0,514 6,394 0,032 -1,777 -3,503 -3,343 3,435 0,168 -5,030 0,641 -5,805 -1,096 -2,125 -0,083 -6,881 -4,025 -17,782 -10,381 -32,796 -64,661 -25,606 25,117 6,553 8,437 8,842 9,075 10,607 12,233 11,903 10,537 -3,777 -2,223 1,590 13,810 -1,971 10,308 -6,510 7,651 2,266 -3,592 -5,325 0,534 -9,555 -8,364 -5,151 -1,234 -8,315 -14,358 -10,882 -9,692 -19,620 -22,493 -20,900 -21,032 0,000 -92,419 -65,368 86,584
1,499 4,734 -1,028 20,001 7,958 14,537 7,562 13,012 1,461 2,672 -6,103 11,433 -0,102 7,394 -1,856 4,288 -1,541 2,276 -6,880 0,029 -11,110 3,143 -10,036 2,716 -12,903 -2,749 -25,107 -11,388 -40,964 -76,075 -41,856 10,356 3,495 6,346 6,448 8,686 11,904 15,117 14,155 12,351 -3,994 0,454 -2,061 16,726 -13,901 4,540 -12,298 7,440 -0,340 2,281 -6,636 5,869 -13,953 -5,222 -11,446 0,261 -20,493 -6,027 -19,895 -8,831 -22,471 -20,399 -24,562 -22,110 0,000 -113,995 -41,467 78,894
0,082 6,609 0,719 25,092 11,544 19,618 12,818 16,426 1,713 4,519 -11,196 12,589 -1,952 9,249 -3,194 2,498 -2,994 -0,519 -10,284 -1,716 -17,971 0,777 -16,464 -0,096 -16,500 -7,765 -30,202 -17,455 -58,935 -84,582 -46,175 5,235 -7,505 -1,813 -1,711 3,820 6,506 9,886 11,886 6,991 -6,564 -5,823 -7,745 14,066 -25,114 -1,997 -17,442 6,620 -4,131 3,351 -7,462 6,274 -13,092 -4,756 -11,968 2,490 -14,373 0,160 -17,145 -2,245 -12,120 -10,614 -16,126 -14,678 0,000 -128,158 -24,946 86,976
-3,111 4,974 -8,529 13,713 3,128 6,432 2,968 3,600 -1,814 -3,216 -9,111 8,787 -2,530 2,783 -6,868 -4,387 2,292 -3,134 -9,077 -0,433 -12,961 -0,049 -9,075 0,631 -8,294 -5,612 -22,730 -16,335 -62,647 -65,724 -30,160 27,960 -10,505 -3,371 -4,804 0,698 2,266 2,256 6,247 2,416 -12,796 -13,400 -6,899 12,033 -16,059 5,906 -12,083 8,239 -1,533 -0,894 -5,303 2,759 -9,356 -9,317 -3,337 2,659 -8,910 -2,862 -3,020 3,044 -2,972 -7,039 -5,891 -8,921 0,000 -122,969 -54,683 99,416
-5,468 1,693 -19,797 0,301 -9,083 -7,272 -10,309 -10,095 -10,699 -14,091 -6,861 5,455 -3,108 -4,722 -7,504 -7,157 8,126 -2,989 -5,980 3,555 -2,860 4,920 1,547 5,118 4,889 0,624 -11,087 -11,612 -47,958 -36,208 -14,507 52,583 -2,558 3,420 0,048 3,205 2,904 1,959 3,930 2,515 -11,642 -16,758 -2,512 12,621 -0,206 18,119 -3,270 12,315 2,268 -1,331 -3,412 2,133 -6,000 -12,736 3,773 3,378 -7,612 -4,742 5,162 5,208 2,827 -8,501 -0,069 -7,486 0,000 -103,235 -91,981 99,312
-2,210 5,839 -12,695 7,248 -5,299 1,285 -7,507 -4,731 -11,553 -12,360 -4,298 10,781 0,859 1,077 -8,233 -3,427 6,358 -2,963 -6,151 2,906 -5,175 6,372 -1,836 5,087 1,793 -5,977 -23,706 -15,920 -39,679 -39,839 -24,961 43,196 1,193 7,042 3,314 6,504 3,997 5,087 3,336 2,781 -14,434 -15,551 -3,247 14,232 -2,723 15,330 -4,930 12,378 1,718 4,426 -4,905 7,043 -8,547 -9,695 3,405 6,856 -5,356 2,697 2,204 6,091 4,338 -10,711 -0,473 -10,125 0,000 -92,163 -78,994 90,581
1,973 11,316 6,811 25,427 11,053 19,442 8,138 11,127 -0,007 0,086 -1,797 15,589 4,074 8,182 -4,281 -1,224 0,307 -4,140 -9,347 -1,763 -15,695 -1,534 -13,182 -2,105 -9,732 -14,948 -41,951 -25,603 -42,801 -61,567 -54,908 16,325 -6,329 0,529 -0,156 4,268 2,755 6,110 1,599 1,386 -17,256 -11,062 -6,128 12,525 -20,323 0,583 -12,381 7,698 -2,236 5,999 -5,421 7,490 -9,386 -4,656 -1,505 5,712 1,627 4,533 -3,246 4,485 5,040 -6,673 -1,964 -8,803 0,000 -87,082 -27,680 80,066
0,387 8,295 13,107 28,006 15,895 22,982 12,462 14,681 0,803 3,961 -2,729 11,011 -1,832 5,218 -4,507 -1,714 -1,540 -5,265 -7,749 -1,872 -17,628 -4,889 -15,412 -6,529 -15,537 -13,606 -40,743 -24,552 -34,722 -66,787 -61,918 4,067 -16,624 -10,575 -6,906 -2,819 -2,485 1,338 -4,055 -2,615 -17,136 -9,130 -6,146 9,302 -26,438 -8,587 -13,122 3,644 -6,062 1,499 -7,096 3,090 -12,254 -6,050 -5,635 1,743 -2,425 -2,620 -6,106 0,834 -4,327 -2,204 -2,273 -7,562 0,000 -77,306 -7,080 72,477
-1,207 1,923 -2,260 8,599 0,141 4,707 -5,513 -0,947 -16,319 -10,939 -4,344 0,840 -6,403 -3,630 -13,655 -6,533 4,450 -7,436 -3,505 2,818 -7,944 0,381 -3,490 -2,120 -7,414 -3,423 -25,123 -14,033 -10,145 -49,898 -34,025 17,479 -3,410 -1,478 2,558 1,285 -1,112 2,251 -5,504 -2,970 -15,234 -12,730 -0,464 10,608 -7,918 1,052 -3,445 5,142 -6,578 -3,982 -12,013 -2,102 -19,876 -15,083 -3,444 -4,974 -9,243 -9,843 -2,011 -5,089 -18,650 -12,616 -4,406 -15,882 0,000 -60,010 -51,758 69,843
0,835 -0,601 -17,191 -10,283 -16,255 -13,890 -23,471 -17,821 -26,958 -24,433 -2,093 -5,350 -5,930 -12,808 -16,451 -10,032 11,506 -8,630 0,042 5,722 4,339 3,707 10,627 -0,970 3,792 5,746 -12,897 -6,405 11,731 -21,471 -4,615 31,704 24,689 21,548 21,102 15,351 7,767 9,325 -0,072 1,390 -13,050 -14,763 6,445 11,953 13,757 13,415 6,686 7,925 -2,653 -7,890 -11,604 -6,424 -21,588 -22,032 -0,693 -12,174 -10,240 -20,898 0,901 -12,982 -26,735 -24,455 -10,181 -29,907 0,000 -30,104 -90,716 51,784
3,910 -0,512 -12,573 -5,395 -13,377 -7,569 -18,379 -12,346 -20,409 -17,042 -1,917 -3,412 -5,882 -8,343 -18,674 -8,166 5,793 -7,054 -5,502 0,163 -2,273 -3,153 3,517 -3,555 -12,752 -6,653 -19,107 -13,718 9,517 -9,202 -5,876 26,304 18,192 13,121 13,535 11,251 4,823 5,848 -1,656 1,287 -10,242 -10,836 -0,288 6,692 7,570 4,129 0,543 2,896 -4,055 -5,393 -11,931 -5,542 -17,377 -17,233 -3,304 -9,819 -19,152 -17,268 -2,251 -11,764 -36,691 -23,678 -12,039 -27,185 0,000 -21,536 -65,997 30,324
3,619 1,714 3,660 11,488 4,580 11,128 1,599 4,525 -4,139 -3,014 -0,497 1,243 -2,693 -1,455 -14,559 -9,526 -6,430 -4,993 -10,000 -6,635 -15,360 -13,388 -12,372 -8,599 -33,201 -25,042 -34,232 -28,833 -13,335 -18,426 -33,581 6,648 -13,948 -14,591 -9,429 -6,445 -5,836 -4,659 -10,505 -5,044 -10,451 -11,317 -9,369 -2,551 -15,471 -13,410 -11,415 -5,602 -8,225 -3,918 -12,009 -5,240 -12,587 -9,596 -5,979 -5,082 -20,921 -9,222 -1,342 -2,154 -25,211 -11,931 -2,963 -9,992 0,000 -49,230 -16,178 22,272
6,602 4,343 2,338 16,388 5,817 11,727 3,641 7,972 -2,245 -4,476 2,249 5,782 -0,580 -3,231 -11,625 -8,598 -4,855 -3,662 -4,380 0,551 -13,877 -5,550 -6,502 -2,501 -23,323 -16,348 -26,594 -20,841 -14,604 -40,788 -29,852 10,304 -10,564 -6,795 -4,047 -1,276 -1,678 1,902 -8,078 -1,205 -7,440 -11,213 -4,389 4,780 -12,160 -4,418 -10,625 0,810 -8,973 -5,271 -14,240 -5,596 -15,307 -11,027 -6,156 -4,657 -14,105 -11,260 3,592 0,061 -18,875 -7,464 2,042 -6,731 0,000 -41,493 -35,042 51,810
3,269 2,085 -15,729 -1,642 -10,490 -6,117 -12,577 -4,798 -16,019 -13,875 -2,275 2,797 -3,081 -6,365 -15,537 -2,920 4,828 -5,341 1,990 8,450 -1,382 8,913 10,623 6,427 -2,440 4,873 -9,599 2,558 14,838 -24,040 -0,208 27,814 5,590 8,178 5,751 5,334 2,297 4,877 -4,890 1,904 -14,446 -11,720 0,365 10,546 4,828 11,793 -2,703 9,232 -4,786 -6,122 -10,467 -2,651 -16,453 -10,153 -0,170 0,409 -10,701 -7,466 10,153 -1,935 -21,731 -4,265 4,756 -7,126 0,000 -15,625 -89,199 57,812
-9,175 -3,842 -22,158 -12,523 -13,743 -12,761 -17,752 -11,342 -16,962 -10,723 -15,435 -4,776 -9,648 -7,770 -18,548 1,962 4,515 -8,446 -7,857 -1,563 -4,772 -1,729 1,522 -0,990 -4,806 5,981 -14,141 -1,031 15,656 -18,506 -6,075 22,903 -7,223 -7,762 -8,186 -9,511 -8,444 -9,532 -8,176 -5,139 -22,855 -17,200 -9,996 -0,267 -6,941 4,485 -8,431 1,514 -2,858 -6,108 -6,137 0,917 -9,373 -3,726 2,530 -0,849 -6,463 1,548 7,406 1,387 -12,370 1,672 1,973 -1,301 0,000 -32,532 -70,933 51,616
-10,089 -1,445 -4,431 4,031 2,019 6,130 -4,456 -0,926 -5,705 1,266 -18,749 -3,850 -12,206 1,593 -18,905 2,609 -2,821 -10,426 -20,003 -15,656 -20,845 -14,840 -24,611 -11,351 -32,288 -23,531 -45,106 -26,035 -13,998 -33,143 -46,800 3,607 -15,096 -13,677 -10,629 -8,563 -8,385 -8,669 -7,899 -4,267 -17,646 -11,465 -15,364 -5,270 -30,576 -12,418 -20,011 -6,851 -10,391 -1,643 -13,426 -1,552 -14,494 -4,924 -10,795 -12,067 -13,702 4,593 -10,785 -4,154 -19,485 -12,304 -11,126 -7,952 0,000 -77,722 -5,275 34,370
6,527 11,172 10,549 26,970 12,544 21,885 9,083 11,297 2,578 3,717 -3,418 13,962 -0,139 15,172 -8,181 -1,844 -3,329 -5,541 -10,509 -7,099 -20,220 -7,021 -22,359 -1,013 -30,381 -31,777 -43,920 -27,757 -28,220 -14,140 -45,777 19,511 2,703 7,827 10,601 15,353 9,196 11,182 2,576 7,161 -0,484 -0,513 -2,098 7,117 -28,206 -4,704 -18,060 2,263 -13,157 1,241 -18,109 -7,451 -24,462 -13,924 -21,181 -6,292 -22,052 -5,623 -24,727 -9,676 -26,183 -33,063 -17,155 -23,959 0,000 -83,108 -8,809 15,985
14,260 14,090 -2,228 28,243 1,093 12,406 5,237 11,498 0,560 -1,530 8,172 26,777 9,116 11,420 4,353 -2,327 1,485 3,954 5,685 13,418 -5,468 11,220 7,297 19,536 6,823 -4,706 -9,089 1,645 -3,093 7,866 10,929 67,824 17,194 22,514 21,252 24,366 18,903 24,523 12,533 18,415 11,065 7,742 8,165 22,154 -3,217 23,821 -7,749 18,656 -6,552 -0,921 -12,828 -4,556 -26,505 -12,698 -15,772 -0,091 -20,989 -17,912 -18,001 -8,374 -24,114 -32,724 -20,101 -30,407 0,000 -19,653 -73,250 44,314
5,572 2,752 -26,728 5,816 -19,670 -5,981 -15,628 -4,227 -13,881 -11,320 -3,560 15,893 -2,452 -2,171 -1,983 -1,731 7,452 1,872 3,895 17,162 1,867 20,851 22,184 20,365 28,416 18,513 4,839 17,543 29,516 18,560 45,206 80,925 12,887 12,898 7,267 8,724 3,957 13,517 3,749 9,898 -2,937 -1,054 -3,306 20,996 10,297 32,777 -5,282 22,141 -3,807 1,051 -8,262 4,206 -20,294 -3,849 -3,546 3,902 -12,928 -13,959 -0,934 -0,635 -11,059 -13,920 -13,058 -20,447 0,000 25,995 -104,281 62,657
-6,309 -7,348 -29,522 -8,957 -19,345 -11,506 -22,153 -17,752 -20,479 -13,725 -23,794 -6,081 -14,617 -15,123 -16,397 -7,094 6,318 -10,534 -14,728 -3,970 -9,826 -2,818 -1,247 -7,770 4,010 4,992 -18,693 -8,302 32,642 -14,810 -6,931 15,689 -10,860 -13,006 -15,350 -14,700 -18,866 -12,961 -14,903 -12,034 -20,355 -19,935 -20,648 -0,337 -9,667 5,598 -14,713 7,817 -6,478 -5,309 -7,630 -0,207 -9,915 -1,185 3,172 6,964 -2,039 -6,835 10,276 9,334 10,048 8,022 6,437 2,636 0,000 -2,960 -54,898 43,183
-6,482 -4,852 -6,035 0,435 3,547 1,550 -1,063 -11,247 -7,157 -3,372 -18,005 -11,909 -6,624 -15,934 -14,680 -16,488 -4,715 -14,566 -23,573 -20,215 -22,134 -27,032 -23,877 -28,312 -27,405 -27,864 -45,814 -37,772 -9,159 -42,688 -68,189 -42,034 -26,517 -27,323 -21,502 -19,694 -18,886 -20,333 -17,274 -17,773 -20,509 -21,506 -18,228 -13,400 -31,178 -22,653 -21,160 -8,201 -7,741 -12,800 -7,783 -12,360 -4,659 -7,528 1,128 0,096 7,101 -9,376 9,540 7,441 17,841 6,742 14,452 12,738 0,000 -49,431 -0,342 7,564
11,798 9,578 8,084 15,114 11,888 9,119 14,476 0,456 3,027 -1,469 9,833 6,588 10,340 -5,515 -1,113 -15,210 -6,616 -2,603 -6,511 -3,954 -8,417 -11,527 -2,933 -7,017 -18,351 -28,796 -25,791 -24,908 -27,671 6,287 -36,566 2,311 -2,479 -1,917 1,931 4,041 5,305 1,997 1,247 -1,721 -1,989 -7,459 2,369 -0,232 -11,719 -7,740 -5,825 -0,527 -1,153 -7,369 -2,160 -12,803 -7,241 -14,100 0,845 -4,759 1,470 -17,700 6,507 0,484 -0,028 -11,539 5,258 -1,246 0,000 -24,445 -35,543 -10,225
19,597 13,058 -9,188 13,213 -6,178 3,755 3,170 0,392 -3,882 -12,640 17,709 21,277 14,552 3,949 6,042 -5,978 0,726 8,046 9,339 18,404 7,963 19,558 26,672 23,335 11,739 -4,241 6,794 3,934 -0,572 69,789 51,677 77,812 20,913 22,522 16,636 20,575 16,910 19,454 11,749 9,878 6,901 -1,613 8,533 17,477 11,679 22,892 2,921 16,470 2,457 5,240 -0,519 -0,358 -13,354 -12,501 0,170 -0,440 -8,410 -14,472 2,153 -2,639 -22,106 -24,975 -7,351 -18,388 0,000 38,619 -91,455 -1,329
-0,090 1,738 -29,545 7,353 -17,781 2,464 -14,322 -5,630 -15,007 -17,362 -9,086 15,328 -3,366 3,888 -10,155 -0,716 1,356 -0,905 -3,487 11,199 -5,011 20,572 11,732 16,235 4,880 4,426 -7,647 2,380 35,246 41,141 86,019 76,092 6,597 12,248 2,296 11,437 3,756 13,908 1,786 2,402 -7,025 -7,347 -8,344 19,133 -3,215 24,283 -13,707 19,547 -5,527 9,834 -8,978 5,397 -19,676 -9,299 -10,875 3,281 -19,610 -12,884 -9,774 -7,252 -28,436 -27,367 -21,473 -29,776 0,000 64,077 -71,959 27,602
-19,695 -7,134 -25,543 4,514 -9,365 5,965 -15,878 -9,979 -17,756 -12,701 -34,752 -0,119 -22,221 -1,964 -25,372 -7,474 -3,105 -17,383 -21,827 -9,516 -26,508 -4,323 -23,428 -13,775 -18,279 -8,767 -40,726 -21,999 40,449 -14,791 30,864 15,558 -16,938 -7,352 -14,075 -1,453 -11,641 -2,171 -12,677 -11,716 -22,029 -15,432 -20,403 5,340 -33,210 0,693 -27,864 8,755 -16,236 0,852 -17,996 -3,966 -21,736 -11,750 -21,684 -1,350 -23,554 -12,024 -19,880 -7,533 -17,940 -17,935 -17,735 -25,417 0,000 28,826 -9,312 24,669
-10,467 -0,632 -6,628 2,472 0,686 2,603 -5,745 -10,879 -14,120 -12,596 -21,529 -5,407 -13,771 -5,988 -17,196 -15,099 -2,118 -16,666 -13,571 -8,163 -19,795 -15,026 -22,327 -16,759 -15,910 -21,818 -40,363 -29,768 24,119 -27,468 -25,756 -30,112 -16,180 -9,727 -10,376 -2,841 -10,760 -10,314 -15,977 -17,904 -26,306 -22,411 -9,457 -5,590 -30,705 -11,387 -15,437 -0,586 -13,096 -8,801 -12,473 -13,550 -15,701 -17,187 -13,535 -4,245 -9,200 -7,106 -6,205 -0,631 4,143 -7,987 5,955 -8,945 0,000 -16,441 -6,381 -2,122
15,126 9,096 5,330 -2,576 0,064 -6,778 0,137 -13,392 -14,289 -22,023 12,393 2,576 7,792 -6,595 4,836 -18,651 3,087 -2,499 8,970 7,911 9,716 0,182 13,298 7,478 11,437 -21,854 -11,520 -16,904 8,948 25,369 -16,088 -22,652 0,499 -2,593 0,554 -0,673 -4,040 -10,614 -11,451 -18,258 -26,895 -29,496 6,017 -7,056 2,512 -1,919 8,439 -1,169 3,629 -5,233 5,270 -11,890 -4,549 -18,168 10,470 2,354 12,920 -2,843 18,499 9,223 22,872 -7,648 24,252 -1,249 0,000 -17,214 -59,685 -40,190
17,770 8,891 -1,725 -0,758 -7,766 -3,865 -6,282 -10,993 -18,470 -24,764 15,257 12,365 5,019 -1,166 3,855 -11,424 2,286 3,148 9,402 11,090 12,308 13,531 20,902 17,573 12,744 -15,963 -8,873 -11,877 4,339 41,675 21,921 -2,800 4,176 0,507 0,329 0,392 -4,436 -5,248 -10,511 -13,930 -25,935 -28,841 2,054 0,245 10,595 10,065 6,113 5,859 4,372 7,025 4,252 -0,385 -7,615 -12,803 11,354 11,509 6,643 3,790 15,967 11,938 4,376 -16,766 14,768 -9,076 0,000 15,390 -67,195 -38,773
1,970 3,929 -9,934 9,065 -6,103 6,777 -8,725 -5,207 -19,308 -17,889 -5,514 11,593 -5,875 2,114 -12,699 -10,551 -2,316 -5,909 -8,227 -1,863 -9,391 4,640 -2,650 0,100 -10,661 -12,992 -32,414 -24,566 6,029 6,418 31,662 4,413 -4,047 -0,620 -3,296 1,648 -5,601 0,031 -10,581 -9,165 -21,411 -21,343 -9,459 5,350 -11,964 5,891 -12,387 7,538 -6,748 6,109 -8,902 -0,944 -19,924 -11,930 -5,802 8,345 -11,186 -7,141 -2,194 1,511 -21,052 -18,775 -3,122 -19,261 0,000 42,105 -29,447 -5,557
-7,031 1,194 -14,950 9,893 -5,189 4,316 -8,695 -6,948 -22,926 -17,063 -18,246 3,657 -15,107 -2,001 -24,457 -16,069 -2,932 -13,254 -15,147 -7,735 -22,323 -7,689 -17,554 -10,614 -21,529 -18,130 -44,459 -30,633 29,193 -12,014 15,104 17,515 -5,314 1,871 -0,069 5,680 -2,045 2,881 -7,986 -5,991 -18,170 -16,243 -11,001 4,949 -23,069 3,004 -19,407 6,001 -14,483 -3,481 -18,408 -9,562 -29,277 -20,733 -17,783 -5,597 -28,197 -20,956 -14,288 -6,315 -32,256 -25,479 -13,156 -28,138 0,000 34,073 -23,868 20,429
-2,296 -0,591 -18,312 -3,983 -13,158 -9,388 -15,846 -17,145 -32,012 -26,446 -9,614 -0,242 -12,648 -8,810 -23,577 -18,488 2,066 -9,600 -3,669 1,200 -8,701 -1,991 -1,822 -0,308 -7,832 -13,662 -30,425 -18,642 55,631 6,585 -7,666 14,525 4,653 8,426 5,405 7,513 1,192 2,853 -7,799 -7,243 -23,356 -18,472 -2,315 2,810 -4,480 9,520 -6,817 5,447 -10,807 -6,855 -15,276 -12,628 -30,512 -27,967 -12,183 -10,935 -31,166 -20,680 -8,767 -8,779 -34,863 -32,604 -10,227 -33,410 0,000 18,272 -63,000 0,661
10,504 0,381 -13,765 -10,359 -14,266 -12,769 -16,537 -19,746 -31,641 -32,858 4,541 0,247 0,393 -8,852 -9,866 -15,737 5,580 -3,226 6,176 8,364 8,891 7,600 18,414 8,527 8,928 -7,214 -11,788 -9,302 53,401 23,155 -43,002 -13,690 6,518 4,079 1,400 -0,960 -5,459 -5,456 -13,755 -16,855 -31,550 -30,092 -1,583 -2,092 7,942 7,385 3,212 2,831 -0,935 -1,944 -2,541 -6,022 -17,258 -21,280 6,990 0,183 2,871 -5,250 11,965 3,089 -10,137 -18,163 11,482 -19,533 0,000 33,133 -78,257 -32,537
11,970 1,954 -2,420 -0,679 -2,658 1,699 -5,573 -8,456 -15,622 -22,433 4,024 -0,793 5,348 -4,691 -3,824 -15,462 -1,257 -3,346 1,293 2,404 3,899 1,271 11,718 -0,578 1,723 -15,850 -19,627 -21,420 19,035 4,340 -69,833 -46,116 -12,146 -16,269 -13,147 -14,715 -15,959 -14,372 -22,272 -24,664 -33,510 -34,619 -9,447 -7,618 -8,335 -10,265 -4,243 -4,507 0,855 0,992 2,201 -2,559 -7,565 -10,591 12,453 2,814 17,922 -0,076 18,112 11,793 11,081 -2,638 22,274 -1,041 0,000 45,082 -33,977 -41,041
1,442 1,082 4,417 9,770 7,706 14,209 3,123 0,763 -8,181 -14,064 -5,524 -1,636 -1,751 -3,485 -9,042 -16,152 -7,073 -9,614 -8,753 -5,980 -12,912 -8,037 -8,923 -12,666 -17,091 -24,454 -41,444 -38,405 0,852 -27,368 -57,570 -39,733 -20,285 -19,245 -12,927 -9,804 -10,864 -9,309 -17,478 -18,526 -30,035 -30,372 -9,861 -4,274 -25,440 -18,975 -12,280 -6,920 -6,115 -0,211 -6,945 -7,299 -14,685 -16,725 -2,071 -9,365 1,830 -12,926 1,136 -0,608 -1,467 -13,636 3,488 -13,321 0,000 28,469 1,559 -12,751
0,874 4,499 -0,855 4,895 2,986 3,424 -3,187 -7,094 -18,380 -21,307 -2,814 0,008 -1,170 -4,468 -12,326 -15,480 -1,397 -11,125 -6,495 -3,544 -7,941 -11,172 -5,814 -6,160 -19,712 -18,748 -41,305 -34,302 12,883 -16,129 -17,098 -0,492 -0,991 0,085 5,550 5,738 0,615 0,796 -9,005 -9,861 -28,248 -26,368 0,441 0,912 -12,523 -3,797 -3,597 -0,519 -4,970 -7,988 -12,054 -12,168 -24,431 -28,471 -6,310 -7,073 -12,821 -19,196 -3,764 -10,035 -25,930 -30,170 -9,269 -33,233 0,000 27,131 -24,539 8,270
9,374 4,259 -8,284 -6,988 -8,822 -12,316 -13,333 -19,026 -25,390 -28,429 8,297 -0,500 3,404 -11,912 -12,233 -20,213 5,544 -6,312 2,117 3,154 8,150 -3,398 14,028 3,919 -2,571 -10,752 -22,411 -19,328 24,794 10,461 0,784 11,423 14,406 8,640 14,172 6,977 2,449 1,855 -6,407 -8,173 -24,750 -23,842 7,026 1,743 11,422 11,272 8,760 3,185 0,689 -11,147 -8,246 -14,184 -20,860 -27,673 3,830 -7,465 -15,174 -26,127 8,574 -8,796 -27,510 -27,173 -4,935 -31,331 0,000 44,811 -65,332 -3,698
13,683 3,259 -6,929 -7,682 -11,358 -8,770 -12,634 -15,334 -20,270 -23,818 10,478 0,953 4,181 -7,656 -10,510 -12,209 4,720 -2,226 3,179 5,453 9,928 2,619 19,134 8,418 6,935 -4,796 -13,687 -10,679 27,049 23,651 -21,671 -6,554 5,508 -2,310 2,700 -3,625 -6,771 -3,916 -11,135 -13,192 -21,525 -22,783 0,615 -1,152 11,210 8,590 7,763 1,803 0,785 -2,893 -3,918 -6,678 -9,927 -14,219 11,188 1,941 -8,240 -11,190 18,004 2,919 -5,979 -9,153 8,609 -11,986 0,000 41,758 -61,377 -28,431
16,229 4,373 3,242 3,186 -2,114 2,889 -6,751 -5,164 -14,910 -16,325 7,845 1,517 1,457 -2,323 -12,434 -11,463 2,339 -6,253 -0,481 0,461 0,009 -4,096 8,273 0,191 -5,229 -11,615 -30,322 -18,440 21,314 3,889 -55,509 -33,541 -5,941 -12,633 -5,738 -9,786 -15,009 -9,947 -18,591 -18,922 -29,298 -22,806 -7,068 -6,602 -2,231 -4,837 -0,351 -2,437 -4,291 -1,052 -6,041 -3,964 -10,387 -7,830 9,892 5,465 -3,661 0,283 21,640 9,817 0,377 3,797 19,557 0,918 0,000 41,833 -27,011 -32,897
11,138 2,333 3,958 6,031 1,548 2,547 -5,276 -5,054 -14,724 -15,745 4,265 -1,070 -1,529 -5,488 -14,586 -14,655 3,189 -10,345 -1,149 -0,631 -3,782 -8,443 1,818 -4,735 -15,207 -13,655 -31,232 -21,251 23,308 -20,839 -60,034 -37,330 -2,972 -8,056 0,110 -3,269 -10,349 -6,583 -16,614 -15,538 -26,306 -19,440 -3,434 -3,734 -6,332 -7,543 -2,048 -2,879 -4,720 -6,748 -8,552 -9,174 -17,059 -14,560 3,022 -4,350 -10,659 -9,675 11,409 -0,850 -19,867 -5,487 10,942 -9,805 0,000 36,755 -24,583 -17,237
5,246 1,253 -7,139 -2,602 -7,953 -8,133 -11,603 -12,674 -16,523 -18,196 0,285 -1,049 -1,455 -6,100 -12,461 -12,508 7,560 -6,779 3,207 6,137 2,321 0,832 9,047 3,445 3,132 -3,472 -11,469 -6,515 47,454 -12,868 -35,836 -19,469 7,983 5,213 8,363 5,735 -2,268 0,602 -7,464 -7,242 -14,537 -13,462 2,363 3,513 1,739 6,504 0,366 2,647 -2,381 -7,633 -6,771 -10,641 -16,737 -17,974 -1,769 -8,429 -16,261 -16,754 -0,500 -7,130 -23,299 -18,360 -1,848 -22,853 0,000 28,265 -58,872 -11,384
7,171 1,635 -14,705 -8,249 -15,802 -12,268 -14,390 -14,404 -14,174 -17,099 1,631 2,570 -1,249 -4,086 -5,807 -6,684 6,790 -1,297 3,215 7,803 5,774 8,804 17,018 11,761 20,199 4,769 0,671 1,011 60,954 10,152 -24,267 -8,486 9,984 6,372 4,731 3,689 -1,799 0,754 -3,263 -3,678 -8,605 -11,023 -0,507 4,360 8,867 14,134 0,735 5,799 -2,393 -3,224 -4,093 -5,668 -8,945 -12,307 2,172 -1,356 -7,228 -11,729 3,417 0,089 -8,040 -14,788 -2,132 -18,252 0,000 39,564 -79,120 -21,220
3,798 -1,907 -13,873 -3,079 -10,556 -2,073 -5,510 -5,251 -3,799 -4,129 -0,933 2,741 -1,308 0,577 1,238 1,698 -0,986 2,061 -5,583 1,317 -2,042 5,011 10,855 5,897 10,619 1,822 -3,577 -0,852 50,337 16,397 -28,018 -4,568 -4,291 -5,406 -6,165 -3,858 -3,271 0,932 -1,308 0,553 -2,352 -1,480 -7,411 1,727 -1,888 4,886 -7,713 2,735 -4,802 1,667 -2,975 -0,246 -3,137 -2,491 1,588 3,638 6,242 0,315 6,043 4,736 -1,771 -4,121 0,370 -0,734 0,000 57,597 -55,648 -22,660
-1,934 -5,048 -7,991 3,945 -0,388 6,783 3,739 4,084 4,773 5,065 -1,964 -0,173 0,764 -1,757 1,834 1,517 -6,463 0,830 -11,126 -4,707 -9,091 -4,033 0,771 -5,728 -5,875 -4,485 -10,979 -5,932 36,392 4,391 -15,921 -1,265 -13,582 -12,056 -9,739 -6,167 -2,204 2,449 1,290 4,642 4,015 6,579 -7,677 1,521 -11,543 -4,280 -11,081 -0,883 -4,339 2,531 -1,527 0,726 -0,034 2,773 1,384 1,874 6,558 0,020 6,281 1,155 -4,184 4,167 2,937 9,090 0,000 59,993 -33,992 -8,122
0,100 -3,249 -5,505 4,681 0,921 3,919 4,855 5,570 6,178 5,042 4,659 1,641 4,117 -2,823 3,360 -0,178 -4,794 2,216 -6,826 -1,681 -4,733 -2,396 4,322 -3,757 -2,749 -2,267 -5,407 0,727 41,349 2,836 16,893 13,265 -8,374 -9,531 -5,419 -3,622 0,472 3,531 3,158 6,454 7,444 9,045 -2,066 3,241 -4,408 -0,472 -5,447 0,366 0,350 1,725 2,001 2,614 4,127 5,734 6,550 2,842 8,015 0,816 12,767 1,983 3,884 11,800 8,960 14,563 0,000 56,515 -48,688 12,014
4,727 -2,167 -6,070 -0,309 -4,032 -2,702 -0,579 1,629 0,305 1,049 5,994 1,478 3,111 -3,832 0,342 -0,756 -1,089 3,813 -0,511 3,720 3,624 2,762 11,597 4,028 6,740 2,852 0,695 8,585 61,747 16,042 43,293 18,025 -5,975 -10,147 -4,831 -5,802 -3,244 -0,450 -1,059 2,507 4,334 5,165 -0,703 1,145 3,969 2,689 -0,740 1,466 3,514 0,068 4,021 3,139 3,600 6,252 10,215 5,274 5,408 5,370 16,819 4,494 7,397 14,175 12,630 15,339 0,000 52,312 -67,266 7,677
-2,449 -5,114 -7,208 -3,456 -5,294 -1,249 -3,046 -0,130 1,844 4,820 -2,450 -3,146 -4,457 -4,276 -3,999 -0,053 -0,374 2,067 -3,179 0,738 0,008 -0,427 4,998 -1,249 7,077 0,441 -0,002 8,885 60,030 13,398 41,489 8,657 -9,825 -12,018 -7,252 -6,770 -6,228 -0,410 -0,671 2,763 10,818 10,532 -1,957 -0,234 -3,057 -0,965 -4,146 -0,328 -1,777 -0,962 -0,574 1,053 0,897 6,892 3,316 0,083 0,050 -0,653 5,649 -2,435 2,642 8,656 3,633 11,413 0,000 41,247 -57,305 -3,879
-6,825 -5,948 -6,978 -2,526 -4,125 1,025 -3,391 -1,761 3,407 4,610 -6,295 -4,178 -4,894 -1,814 -3,796 -1,021 0,602 -1,871 -5,831 -2,029 -4,673 -2,779 -1,832 -6,266 1,510 -6,162 -0,720 4,439 45,782 7,984 42,327 9,619 -0,164 -0,648 2,091 4,589 1,629 7,308 6,939 8,518 19,846 15,211 1,337 3,796 -5,131 -0,923 -6,336 0,492 -4,345 -1,427 -3,942 -2,893 -2,549 0,752 -5,691 -6,509 -4,565 -10,960 -8,582 -12,236 -9,262 -9,550 -10,407 -3,226 0,000 37,846 -46,131 -7,498
-3,116 -2,203 -6,311 3,973 -3,313 1,447 -2,888 1,189 2,803 3,706 -2,979 4,390 0,230 3,262 0,560 4,128 2,881 0,163 -2,494 2,767 -3,943 2,333 1,397 -0,416 1,811 -0,570 -1,499 8,708 45,541 5,891 76,843 32,758 12,727 13,994 14,223 17,289 13,300 16,591 14,709 16,988 19,023 18,362 6,139 11,746 0,305 8,372 -2,143 6,127 -2,853 -1,409 -4,745 -3,429 -7,329 -3,685 -9,275 -7,372 -11,811 -10,314 -14,596 -16,363 -19,283 -15,814 -18,488 -16,412 0,000 39,167 -60,319 13,007
3,499 3,988 -3,226 12,069 0,349 5,130 3,665 7,385 8,251 7,961 3,410 14,273 4,449 8,653 7,728 9,032 2,158 5,787 -0,279 7,105 -0,495 8,397 6,381 9,554 6,035 8,260 3,938 13,525 48,092 15,926 100,106 54,950 8,328 9,923 8,985 12,679 11,311 13,786 15,120 16,472 16,353 16,839 4,328 13,955 2,455 13,447 0,677 11,860 1,911 2,838 0,763 4,243 -2,229 3,703 -2,074 2,922 -9,247 2,212 -2,447 -3,557 -6,796 1,309 -6,832 -2,467 0,000 31,153 -70,474 33,240
1,488 4,440 -1,794 15,321 5,679 8,911 8,685 8,943 14,512 14,129 1,359 12,960 3,248 8,178 7,853 6,154 -0,676 6,491 -5,416 1,805 -4,785 5,443 1,408 5,165 3,815 5,429 -0,457 8,186 30,163 17,599 76,501 45,785 -18,257 -15,660 -15,153 -9,684 -6,221 -3,928 2,788 3,314 9,174 9,424 -7,986 4,671 -10,274 4,117 -6,945 8,851 2,496 5,352 5,429 9,983 9,049 15,874 9,842 15,369 10,404 14,769 16,280 14,131 23,249 30,139 17,413 29,804 0,000 20,421 -46,680 38,004
-7,920 -1,012 -4,803 11,551 5,621 8,533 5,687 5,441 11,214 12,857 -5,623 7,037 0,869 4,742 -1,824 3,028 -2,524 1,605 -11,727 -4,597 -11,430 1,000 -7,856 -5,303 -5,532 -0,522 -12,010 -1,823 13,770 -5,624 43,429 29,327 -33,211 -26,454 -25,966 -17,518 -12,895 -10,323 -5,057 -3,161 3,924 5,540 -10,546 2,289 -17,595 -0,925 -11,777 6,748 -0,647 4,497 3,223 7,876 9,714 13,106 9,633 17,807 10,939 14,448 17,024 15,921 26,986 29,140 19,710 33,471 0,000 10,654 -33,871 48,285
-4,980 -0,740 -8,305 1,789 0,490 -0,642 -1,501 -1,849 -2,890 2,170 -1,664 2,427 4,704 -3,463 -8,226 -0,583 1,381 0,820 -5,216 0,573 -2,530 1,240 -0,521 -1,738 -1,221 1,966 -6,494 3,103 28,988 -2,394 34,498 45,988 -1,801 2,478 1,565 5,503 6,591 6,250 7,207 7,569 8,658 10,277 3,986 10,367 0,443 8,557 -1,478 7,698 2,294 -1,382 -1,778 -1,184 -3,837 -3,148 1,865 -2,384 -18,633 -6,608 1,465 -2,934 -9,565 -1,573 -4,482 -0,146 0,000 21,954 -63,614 46,830
4,223 2,449 -10,073 1,910 -4,778 -3,125 -4,987 -3,528 -8,242 -5,017 1,288 6,987 2,106 -2,722 -4,001 -0,439 5,978 1,210 0,512 6,629 1,772 7,032 8,607 7,014 5,087 9,287 -0,217 8,367 40,334 10,266 37,365 62,948 26,859 26,974 22,318 23,975 20,794 19,012 17,905 15,775 10,516 11,019 9,843 17,579 12,220 15,138 3,376 10,273 1,641 -0,311 -6,015 -3,440 -12,295 -10,795 -6,608 -10,068 -24,757 -15,416 -11,639 -15,346 -31,736 -19,226 -22,264 -26,940 0,000 30,162 -75,119 40,505
5,709 8,604 -0,673 17,707 3,732 10,092 1,824 4,404 0,903 -1,891 -0,769 12,261 -4,253 7,157 -2,030 0,562 2,890 -1,846 -7,419 0,983 -8,872 1,653 -1,519 3,575 -8,708 -3,649 -19,817 -9,350 13,771 -4,831 15,887 52,681 7,632 11,219 6,534 14,128 8,945 8,834 8,250 6,374 -3,175 0,989 -1,331 12,774 -5,871 5,478 -7,330 8,210 -2,872 4,222 -6,672 1,282 -9,926 -7,600 -5,681 -0,553 -6,092 -4,887 -6,814 -5,146 -18,368 -14,865 -15,777 -20,058 0,000 15,363 -37,858 50,949
1,063 10,213 6,412 29,792 12,532 20,046 4,404 7,796 0,779 -2,077 -6,708 12,883 -7,171 7,793 -5,863 -5,764 1,987 -7,841 -12,996 -4,278 -20,332 -7,528 -16,077 -8,140 -26,095 -18,387 -40,710 -25,954 -6,440 -27,339 5,872 40,613 -20,520 -10,502 -12,366 -0,478 -9,628 -5,295 -10,251 -9,631 -20,155 -12,173 -11,967 6,362 -26,563 -4,814 -17,849 6,927 -6,745 3,672 -10,202 0,843 -10,505 -6,830 -4,418 5,037 -0,291 -3,368 0,492 5,958 -0,710 -4,214 -0,672 -9,414 0,000 2,109 4,304 71,416
1,876 11,472 -1,756 23,507 1,739 11,191 -8,343 -0,668 -14,522 -15,187 -5,631 14,556 -7,518 2,627 -13,586 -7,121 11,176 -10,715 -4,244 6,298 -13,135 4,747 -5,781 -0,609 -12,543 -9,768 -33,318 -18,584 13,881 -36,086 41,496 49,516 -4,323 7,204 1,821 11,757 -4,769 1,902 -11,245 -8,981 -26,840 -18,545 -3,962 15,862 -11,659 10,861 -8,572 16,924 -7,907 3,465 -15,147 -0,761 -19,728 -17,344 -4,554 -3,958 -9,229 -9,072 1,783 4,226 -7,181 -13,342 0,480 -20,371 0,000 -1,068 -27,456 90,967
6,791 12,497 -12,245 8,073 -12,445 -3,914 -19,772 -10,115 -26,589 -24,102 0,104 14,011 -6,191 0,251 -13,190 -3,124 17,519 -8,234 2,831 15,120 0,777 17,828 11,372 13,178 10,164 5,426 -16,742 -3,319 45,824 -22,894 78,604 61,712 30,384 37,121 24,505 30,984 12,366 15,408 2,957 2,802 -23,046 -14,258 7,716 24,311 15,716 27,926 5,858 20,269 -2,587 4,360 -12,427 0,794 -23,162 -22,592 -1,921 -6,005 -18,197 -9,930 0,527 -4,424 -17,188 -26,292 -9,035 -33,805 0,000 -14,954 -78,360 85,176
5,530 10,305 -2,113 7,473 -1,973 -2,292 -9,186 -8,652 -19,223 -17,326 -3,827 5,516 -5,450 -4,860 -10,961 -13,367 9,682 -9,099 -6,845 -0,259 -5,947 -6,046 -3,777 -0,155 -2,163 -12,173 -29,298 -24,561 21,838 -41,962 47,712 18,665 11,249 13,262 5,560 11,795 1,805 -3,689 -1,593 -7,586 -24,378 -20,749 -3,923 5,527 -1,414 5,913 -3,625 3,951 0,754 -2,473 -4,628 -3,461 -10,856 -15,784 2,083 6,288 -5,364 -12,581 -0,965 -3,533 -6,450 -18,802 -7,160 -23,938 0,000 -50,940 -36,215 64,058
-8,293 1,789 14,811 24,369 21,971 19,399 12,213 4,258 3,684 -0,359 -15,172 -2,780 -4,346 -5,871 -9,388 -20,781 -5,539 -10,762 -19,826 -17,191 -27,907 -28,168 -37,707 -25,217 -34,860 -42,671 -54,766 -54,007 -35,748 -94,028 -0,800 -29,113 -43,758 -36,799 -32,064 -21,283 -21,227 -25,241 -19,336 -22,777 -23,668 -25,615 -21,784 -11,955 -47,102 -31,392 -26,494 -11,521 -4,216 -5,207 -4,834 -7,178 -4,417 -10,730 -4,991 5,096 2,786 -10,455 -9,372 1,653 9,596 -4,979 3,772 0,168 0,000 -81,805 44,881 75,133
-4,297 7,089 4,604 25,398 11,104 16,238 2,380 4,028 -0,281 -6,649 -7,064 9,343 -4,157 2,140 -9,995 -12,035 2,170 -5,911 -4,522 4,234 -18,253 -1,734 -18,815 -2,323 -17,220 -24,680 -28,114 -25,133 -32,500 -75,519 54,470 16,226 -10,952 3,794 2,352 11,548 3,070 7,656 -5,041 0,910 -0,685 -7,029 0,635 11,619 -22,050 2,423 -11,578 10,301 -8,632 -1,755 -16,648 -5,861 -18,963 -21,297 -17,016 -5,479 -17,867 -17,479 -17,899 -7,470 -15,771 -26,234 -7,945 -15,648 0,000 -76,526 -23,250 89,943
9,438 13,757 -32,491 -2,104 -30,302 -18,729 -32,685 -18,479 -28,603 -32,796 4,055 22,876 -3,840 1,046 -11,084 -2,195 22,711 -1,785 17,117 33,255 15,364 40,366 34,653 39,144 38,867 23,294 27,819 27,112 20,381 8,811 175,308 102,964 68,697 75,897 58,425 58,971 37,483 45,265 22,730 28,960 18,248 4,520 26,588 43,387 45,626 66,381 18,880 40,390 -1,890 3,207 -17,015 -1,065 -30,435 -30,282 -12,269 -7,109 -33,155 -26,602 -13,754 -16,055 -49,256 -54,088 -30,248 -52,212 0,000 -14,140 -157,741 79,807
-5,208 3,927 -44,027 -12,056 -36,830 -23,456 -39,466 -22,650 -31,140 -26,665 -17,402 11,650 -15,091 -3,518 -20,307 3,787 17,314 -7,886 -4,599 12,741 3,710 22,799 15,377 22,473 23,021 21,876 8,818 14,598 15,127 30,932 203,307 107,814 30,790 32,379 14,642 19,916 5,867 9,506 3,984 6,484 -4,324 -12,532 -5,277 23,166 22,057 43,104 -1,326 24,943 -1,403 6,573 -10,712 10,048 -15,567 -9,587 0,022 9,585 -20,369 -1,390 -2,498 0,250 -27,263 -27,640 -21,031 -29,741 0,000 -29,744 -112,338 79,462
-16,130 3,895 8,035 33,292 20,005 30,732 7,640 13,938 9,762 18,967 -31,100 3,084 -17,853 5,958 -24,795 -0,964 -10,139 -17,211 -43,683 -35,814 -48,177 -36,289 -62,350 -32,310 -67,258 -40,028 -72,233 -53,213 -67,275 -32,711 114,767 37,008 -64,522 -55,498 -55,500 -38,653 -38,918 -38,589 -29,263 -27,189 -19,593 -18,953 -46,498 -16,574 -68,734 -38,042 -47,088 -12,752 -12,354 4,975 -13,039 9,623 -1,277 15,299 -5,012 20,456 -9,646 18,770 -2,322 20,216 2,823 18,185 2,676 20,079 0,000 -133,475 87,333 81,366
5,663 20,216 50,780 74,737 55,673 64,753 43,463 42,059 36,768 33,919 -4,386 19,247 -4,367 20,543 -8,332 -12,541 -17,592 -12,904 -32,163 -31,293 -55,969 -40,412 -71,551 -36,932 -87,482 -61,734 -79,198 -64,480 -105,484 -57,225 90,145 12,935 -55,134 -39,713 -29,786 -13,931 -17,958 -15,513 -19,212 -15,429 5,625 2,121 -26,357 -9,049 -80,145 -46,808 -43,456 -10,486 -17,660 2,962 -18,243 -3,585 -6,808 5,996 -19,779 11,548 -14,920 -0,191 -11,367 15,793 3,093 18,425 12,737 24,342 0,000 -147,342 135,021 65,776
19,863 17,683 9,711 39,350 9,410 17,432 10,550 15,813 7,929 -6,448 28,699 33,454 15,936 16,079 14,689 -4,854 7,209 4,516 21,545 30,201 4,924 29,922 17,796 24,600 11,963 5,207 16,046 18,672 -3,474 9,377 203,530 101,556 31,933 43,013 40,012 45,584 31,734 40,124 18,649 21,584 34,094 21,134 27,094 36,416 18,106 33,604 9,486 31,317 1,680 6,358 -5,966 -1,909 -15,698 -16,075 -9,320 -0,123 -15,304 -17,810 -2,832 -7,745 -11,570 -16,837 -3,124 -16,386 0,000 -25,759 -69,903 81,425
-0,194 -8,526 -63,648 -37,857 -60,268 -52,421 -58,439 -38,779 -45,900 -49,691 12,499 14,578 0,284 -7,867 -4,993 7,104 32,801 6,982 39,778 59,503 49,142 71,960 78,841 60,405 87,974 73,760 72,270 80,438 113,064 53,156 261,960 152,427 69,732 68,846 50,071 47,821 30,329 41,626 23,943 24,881 15,005 9,481 34,719 49,186 91,497 88,131 38,264 49,194 12,920 6,131 -0,330 7,906 -23,091 -24,535 5,701 -6,633 -34,738 -19,712 5,225 -24,628 -36,522 -41,763 -33,886 -58,174 0,000 65,857 -236,745 99,154
-20,461 -21,505 -57,215 -54,316 -51,535 -49,843 -67,706 -52,866 -51,084 -34,935 -31,762 -25,863 -31,152 -26,293 -42,931 -1,072 24,693 -17,441 -5,932 7,723 13,464 11,917 21,671 5,316 27,980 41,176 3,512 23,828 91,526 -5,817 91,641 44,300 13,858 3,784 -4,669 -8,669 -21,788 -18,556 -16,889 -17,190 -27,440 -18,806 -13,564 0,653 33,324 24,296 6,909 6,619 -4,142 -7,366 -13,207 0,201 -15,775 -10,329 8,392 -4,838 -21,910 -6,526 10,313 -12,403 -25,219 -10,466 -21,449 -30,987 0,000 6,032 -100,394 64,118
-12,877 -6,499 30,734 12,250 32,349 23,932 10,474 0,581 9,354 21,451 -32,164 -31,805 -21,607 -10,141 -32,239 -14,278 -10,960 -29,963 -49,324 -50,573 -48,836 -69,564 -73,598 -64,472 -83,299 -56,825 -91,999 -72,841 -54,158 -90,059 -124,726 -90,934 -58,716 -62,086 -44,362 -43,392 -41,913 -50,969 -37,320 -38,712 -29,060 -22,753 -38,165 -42,075 -71,687 -74,605 -34,008 -40,157 -19,142 -17,725 -16,812 -16,941 -0,171 0,845 -2,530 -2,501 15,663 6,830 7,481 5,885 12,681 26,844 17,317 27,638 0,000 -115,704 147,404 6,717
28,250 26,848 76,286 67,603 66,337 62,192 62,953 48,345 46,564 37,458 30,228 17,062 22,129 21,150 15,403 -10,694 -20,283 -4,726 -19,620 -23,101 -35,032 -44,811 -45,975 -28,166 -67,288 -68,011 -66,817 -60,148 -123,416 -36,192 -71,118 -26,087 -30,350 -24,353 -6,144 -1,970 3,653 -4,621 -5,035 -3,243 8,779 3,814 1,192 -12,031 -50,563 -48,907 -14,884 -17,844 -5,953 -4,855 -4,676 -12,599 2,956 -2,136 -0,308 1,152 13,063 0,592 14,467 13,347 17,691 18,004 27,221 31,480 0,000 -79,508 113,674 0,018
41,964 27,913 8,482 41,231 1,618 16,220 14,937 25,665 7,075 -7,811 61,611 50,456 37,994 23,259 37,154 5,741 7,921 22,626 32,894 44,648 28,410 49,033 60,420 52,691 37,005 18,666 31,334 39,764 0,325 88,084 162,106 162,461 48,778 53,134 47,295 49,578 41,957 50,406 28,757 34,415 21,986 21,694 33,734 46,878 51,021 57,643 23,915 40,495 17,709 20,133 6,756 15,997 -8,958 -3,775 12,967 8,425 -4,737 -9,127 22,476 0,838 -20,700 -16,868 -4,071 -20,067 0,000 119,506 -120,574 64,616
-2,787 -5,515 -71,227 -7,828 -57,195 -27,095 -56,108 -19,150 -41,585 -38,388 0,227 26,987 -7,185 2,273 -10,136 13,425 26,122 8,253 19,320 47,173 26,910 68,986 63,652 50,787 50,065 65,799 37,635 68,828 136,701 56,517 228,510 201,180 44,550 49,344 26,648 35,112 14,643 36,873 14,232 22,075 -5,331 10,071 1,911 54,166 57,177 82,864 4,707 52,736 7,433 23,784 -10,374 28,730 -24,888 0,672 -0,912 8,135 -33,450 -10,640 -0,987 -19,404 -59,360 -30,343 -42,478 -56,951 0,000 223,470 -173,702 147,101
-44,860 -31,531 -46,378 -18,285 -23,727 -10,551 -46,396 -21,530 -31,208 -9,985 -63,856 -27,208 -45,521 -20,066 -56,395 0,438 4,758 -28,346 -35,743 -17,540 -34,689 -15,056 -36,890 -33,155 -39,120 10,075 -53,712 -8,177 124,634 -98,567 31,051 6,066 -29,304 -24,863 -29,890 -19,227 -30,683 -17,354 -23,963 -17,675 -30,709 -5,609 -37,354 -0,601 -35,770 -12,945 -38,474 -1,842 -20,497 -4,362 -30,202 1,586 -24,418 -0,449 -24,971 -9,639 -38,691 -11,710 -29,218 -31,402 -51,580 -9,242 -39,178 -35,645 0,000 100,456 14,191 106,246
-20,630 -20,686 34,635 -4,095 37,039 15,276 14,153 1,441 9,449 20,777 -32,610 -47,325 -22,418 -24,738 -35,004 -16,247 -17,749 -32,250 -37,071 -45,437 -46,334 -74,114 -72,442 -73,622 -78,513 -52,831 -84,056 -59,879 36,035 -121,312 -145,708 -168,428 -52,639 -59,073 -35,586 -38,515 -31,226 -41,125 -34,392 -33,885 -25,409 -8,635 -20,591 -46,217 -68,029 -86,963 -27,367 -49,549 -17,358 -26,777 -12,851 -26,167 0,082 -3,290 -6,747 -16,949 1,213 -3,114 -1,385 -11,693 5,447 29,427 24,858 26,031 0,000 -54,385 116,032 -46,821
37,363 10,151 52,039 -2,101 30,258 1,618 29,424 2,108 12,911 0,246 47,852 -11,683 27,185 -8,315 18,909 -15,500 -3,649 4,143 20,344 4,495 19,758 -20,828 16,101 -5,815 -0,293 -28,236 -2,278 -13,591 -8,053 41,958 -43,120 -83,174 5,954 -10,839 10,268 -5,143 3,518 -14,768 -8,838 -13,631 -3,815 -8,240 26,540 -25,538 15,102 -33,521 29,881 -25,464 16,763 -9,923 23,345 -15,167 18,622 -4,584 37,240 0,658 32,232 8,821 52,895 17,605 41,403 32,043 66,830 46,430 0,000 -26,424 -30,509 -116,329
41,180 12,653 -10,250 -11,977 -25,170 -21,424 -12,795 -14,866 -15,540 -29,573 60,360 23,567 32,380 7,882 34,942 -0,461 19,226 27,933 44,092 49,723 59,843 57,883 89,490 59,543 73,088 35,083 65,033 53,661 55,024 166,099 190,208 136,220 49,266 38,467 33,703 25,753 21,818 20,077 15,526 13,977 9,307 3,896 32,428 25,420 79,784 53,529 45,205 26,959 30,357 23,337 25,655 16,040 7,838 0,102 40,526 8,481 20,238 2,635 49,138 10,135 9,269 -6,467 18,952 -1,220 0,000 150,071 -173,922 -20,455
-8,843 -1,650 -50,127 8,338 -37,301 -2,412 -37,886 -10,595 -29,186 -22,345 -7,748 26,878 -8,217 14,801 -5,798 7,206 16,436 3,184 -3,786 23,753 4,194 48,842 29,897 30,684 27,016 37,412 9,183 34,749 112,081 76,875 232,313 219,702 23,818 37,586 16,136 31,097 11,759 29,398 12,904 19,165 -0,245 13,227 -6,714 48,329 25,036 58,664 -8,186 43,950 3,334 30,646 -12,073 24,044 -24,041 0,833 -8,621 4,820 -30,203 -16,744 -14,702 -20,474 -48,388 -35,485 -54,197 -58,389 0,000 226,580 -98,170 135,920
-34,850 -3,630 -16,211 40,737 7,630 32,137 -7,569 15,487 -5,448 13,311 -53,149 10,136 -32,199 12,362 -35,237 5,991 -2,257 -28,046 -46,286 -22,578 -61,619 -20,560 -66,119 -30,757 -55,754 -12,739 -76,685 -27,311 96,325 -77,680 68,977 111,572 -18,426 7,744 -4,193 20,340 0,587 15,639 1,389 10,205 -8,967 17,210 -27,240 26,025 -60,970 -3,399 -50,876 17,330 -22,827 5,579 -35,822 4,332 -34,795 -4,718 -44,471 -1,994 -52,453 -17,307 -53,677 -30,118 -53,490 -24,360 -58,489 -50,258 0,000 112,503 55,336 169,334
-18,482 -3,659 26,206 29,523 34,872 27,001 27,329 23,844 24,384 28,549 -24,577 -8,841 -12,923 -0,351 -10,140 3,674 -14,201 -18,869 -26,597 -24,320 -45,469 -43,292 -62,517 -36,449 -49,254 -32,092 -59,136 -30,279 52,690 -92,327 -67,318 -34,758 -35,372 -24,110 -15,619 -5,993 -4,241 -7,151 -4,235 -0,186 -1,466 14,388 -8,997 -9,795 -61,665 -42,920 -30,494 -15,215 -14,024 -13,806 -12,957 -9,741 -5,983 -2,673 -20,002 -7,812 -12,850 4,630 -23,319 -12,266 3,658 14,424 -1,353 8,151 0,000 -36,682 57,446 49,595
14,847 -6,558 28,601 -12,732 18,791 -6,809 24,638 4,359 21,675 12,992 28,163 -14,394 19,739 -10,461 26,464 -1,382 -9,143 12,193 15,648 2,492 19,106 -12,342 16,303 0,059 21,173 -8,133 18,913 11,799 26,984 31,342 -87,188 -88,455 -27,201 -41,644 -23,199 -33,470 -14,305 -27,557 -8,294 -12,992 2,139 2,425 9,401 -29,257 5,127 -31,829 15,428 -25,388 14,764 -8,651 28,135 -1,388 32,525 15,598 34,593 9,454 46,467 26,023 41,715 18,835 63,292 49,698 56,621 62,271 0,000 -34,444 -48,959 -101,311
17,753 -13,515 3,876 -29,559 -6,474 -13,459 6,312 -6,958 11,488 4,048 31,403 -12,425 21,902 -5,424 34,919 1,559 -5,463 19,769 14,791 7,318 34,950 7,783 46,883 9,594 51,343 16,646 50,910 34,590 16,570 116,499 -30,239 -58,585 -22,361 -42,034 -29,847 -39,186 -24,225 -28,875 -9,087 -16,433 10,461 3,594 -2,069 -25,403 26,302 -16,465 17,618 -18,332 20,164 8,556 36,244 12,710 43,701 35,291 47,427 22,771 59,526 27,391 57,435 27,280 76,757 58,529 58,716 72,262 0,000 65,563 -69,032 -152,274
-7,936 -13,511 -15,948 -1,124 -10,379 9,302 0,617 7,738 21,332 21,105 -6,478 0,914 0,944 8,586 15,102 12,285 -7,614 5,947 -15,533 -5,491 -7,530 2,703 2,751 -5,423 20,903 11,368 19,539 26,749 27,744 86,229 45,252 49,989 -5,358 -3,123 -7,235 2,805 -0,400 10,522 14,259 17,691 41,644 39,681 -9,946 6,045 -3,780 1,492 -13,757 3,682 -1,993 13,939 3,451 11,292 14,576 26,058 -3,446 5,068 5,183 -2,606 -4,340 -8,716 18,001 11,236 -13,806 18,358 0,000 117,456 -17,254 -49,206
-18,772 -5,495 -21,486 20,551 -7,537 12,094 0,986 15,143 24,034 31,525 -18,600 14,725 -5,363 10,894 3,075 16,765 -0,936 0,073 -19,354 -2,585 -24,780 3,860 -20,741 -2,767 4,271 11,918 4,622 33,781 61,475 56,025 82,741 144,001 24,958 41,626 29,189 45,702 32,186 44,639 38,719 51,536 60,869 69,075 5,406 31,845 -9,057 27,003 -20,127 23,625 -11,773 4,164 -18,480 -0,247 -13,397 3,622 -37,372 -18,167 -40,451 -29,716 -47,226 -41,642 -32,507 -29,386 -62,993 -30,883 0,000 98,025 -35,817 48,512
-2,464 -6,059 -18,385 3,361 -14,987 -10,076 -2,764 3,974 17,744 23,153 1,335 10,156 5,142 0,097 11,591 16,252 7,989 10,883 4,399 13,146 3,875 15,241 7,272 13,495 31,866 28,858 36,155 57,250 94,028 70,752 42,085 94,039 25,214 27,574 23,583 26,556 20,185 25,987 28,116 40,760 50,781 57,409 12,626 20,239 14,151 28,264 0,571 18,431 -0,539 -0,970 -2,737 2,270 3,677 11,055 -11,789 -9,532 -20,972 -11,489 -17,384 -22,591 2,411 1,422 -22,639 0,769 0,000 66,840 -95,675 4,894
12,352 -15,457 -4,550 -20,293 -14,774 -15,113 -2,381 -0,369 19,198 20,521 16,168 -4,942 10,182 -3,962 21,612 16,381 2,195 17,614 13,672 11,371 25,018 15,151 29,067 12,702 51,864 31,033 54,032 58,272 96,156 94,465 -59,599 -35,478 -14,758 -31,314 -21,242 -29,805 -22,522 -19,161 -5,363 2,615 29,535 28,857 -2,744 -13,907 20,718 -4,992 11,850 -4,907 9,318 6,342 22,182 15,921 37,424 39,946 28,454 20,627 25,983 31,389 32,635 19,904 65,860 59,951 42,430 68,960 0,000 68,838 -80,526 -114,973
7,563 -14,361 17,425 -14,850 3,921 8,221 8,941 12,270 28,511 32,332 10,517 -11,963 5,398 5,637 16,870 18,069 -8,629 7,970 -3,374 -7,288 8,886 -3,826 9,332 -10,912 21,030 9,112 25,056 26,157 63,810 58,567 -123,057 -108,429 -46,178 -58,859 -45,309 -48,893 -40,458 -35,565 -21,641 -15,405 17,900 18,267 -16,935 -28,354 -4,977 -36,889 2,302 -19,550 4,354 13,585 21,203 19,531 44,132 49,533 34,468 33,432 45,637 47,895 43,693 34,284 76,561 78,562 60,827 92,795 0,000 90,957 1,344 -146,568
-0,500 -5,610 27,331 0,656 21,132 20,263 22,192 20,934 32,675 37,029 9,781 -12,586 10,514 6,416 15,998 13,373 -9,132 0,239 -12,405 -13,128 -6,015 -20,576 -6,004 -21,410 -9,324 -4,869 5,020 6,770 62,376 13,531 -70,459 -50,485 -21,398 -23,063 -13,643 -11,216 -7,701 -6,480 1,600 6,560 31,032 34,996 -0,784 -11,676 -10,652 -32,088 1,193 -15,362 3,116 4,502 10,040 5,060 26,390 24,816 13,964 4,672 23,417 13,977 17,077 3,695 24,976 37,412 18,124 47,266 0,000 118,477 26,853 -67,806
4,057 3,754 13,047 1,897 9,268 4,210 15,795 13,638 23,394 25,276 23,651 1,873 14,617 2,493 21,912 12,784 3,345 8,779 3,441 7,505 8,508 -0,495 14,496 3,162 9,337 15,462 27,253 31,112 113,734 25,456 34,505 58,367 36,910 37,882 36,911 40,253 37,208 32,829 37,816 41,203 52,817 56,561 27,009 18,797 24,549 9,962 18,446 7,352 9,652 0,096 4,528 -1,563 9,874 1,400 -2,043 -17,713 -6,888 -21,394 -8,708 -31,330 -28,657 -12,371 -30,209 -10,817 0,000 129,180 -50,638 7,290
10,872 3,282 -4,511 -4,944 -8,097 -12,215 3,418 2,790 13,948 12,891 28,755 9,221 16,282 0,309 28,434 11,617 11,695 19,578 15,792 20,935 26,651 22,418 38,116 25,291 40,794 35,578 50,833 51,452 148,916 46,444 57,656 68,529 42,382 38,143 32,975 34,200 32,678 27,250 37,445 39,492 46,383 47,694 25,013 21,383 42,876 27,793 22,954 16,565 16,289 4,745 13,232 6,475 15,734 6,552 6,747 -9,069 5,227 -14,348 -2,301 -24,644 -11,521 -7,300 -25,923 -12,219 0,000 125,295 -100,344 6,967
4,989 -7,970 -2,972 -5,058 -1,796 -2,835 3,399 6,075 15,544 18,304 11,289 -1,359 10,996 0,402 18,369 11,805 3,120 14,181 2,416 5,134 13,859 9,593 18,222 8,711 23,736 22,168 27,268 32,363 123,680 14,074 -17,532 -15,713 -10,443 -16,001 -14,422 -13,113 -7,130 -6,545 4,486 9,237 18,634 24,339 -3,816 -2,222 10,326 -4,071 0,762 0,132 11,687 6,936 14,579 14,297 25,713 25,544 16,677 9,352 19,179 15,834 14,135 3,536 26,444 34,492 9,774 29,958 0,000 120,322 -38,174 -23,096
-6,724 -15,293 4,774 0,393 10,731 12,353 5,814 11,768 16,438 24,281 -10,302 -15,098 -2,796 0,219 -3,009 8,678 -4,007 -3,110 -14,471 -11,579 -13,461 -17,369 -17,126 -20,452 -18,108 -1,233 -8,470 1,415 81,793 -42,840 -52,279 -60,935 -33,667 -33,815 -28,416 -23,824 -20,745 -14,653 -12,427 -4,452 5,151 16,302 -16,655 -12,246 -21,369 -31,782 -14,845 -13,384 -1,839 1,335 -2,102 7,818 17,361 21,577 5,855 4,445 3,716 17,068 10,322 5,403 16,187 43,648 20,937 41,686 0,000 121,055 27,421 -9,914
-2,216 -7,405 4,009 -2,259 6,651 3,225 -0,136 2,546 3,349 9,148 -3,460 -14,309 -5,372 -3,918 -4,060 0,395 4,857 -9,061 -5,552 -2,261 -9,118 -14,343 -7,514 -13,613 -17,393 -5,735 -3,171 0,979 71,164 -54,216 16,429 -30,092 4,083 3,713 6,376 8,535 1,711 4,189 -0,165 5,052 6,329 16,299 3,220 1,124 -1,960 -14,776 0,994 -5,142 0,110 -3,432 -5,625 -1,953 4,524 -1,292 0,763 -11,539 -3,667 -2,587 3,646 -9,636 -12,761 9,644 6,217 8,855 0,000 121,794 -9,765 23,138
14,712 1,388 1,262 -12,281 -6,052 -12,648 -7,658 -8,247 -10,901 -8,752 21,492 -3,893 7,498 -3,722 6,772 2,518 14,127 1,694 18,101 18,808 20,951 14,037 28,987 18,391 15,556 12,529 27,024 24,234 81,896 -11,509 84,687 -7,157 38,213 27,830 30,742 24,180 15,599 13,083 7,930 10,548 1,788 12,343 21,031 12,218 32,873 8,331 24,244 2,830 14,001 3,588 5,604 1,833 3,989 -9,070 10,687 -15,920 -0,062 -3,968 8,073 -13,500 -23,986 -11,643 -0,509 -13,884 0,000 117,961 -68,858 1,625
26,927 6,997 8,372 -4,349 -2,939 -4,390 -5,657 -2,189 -10,238 -7,740 24,522 5,491 9,669 5,054 6,902 3,359 11,912 7,845 19,320 18,292 24,163 16,942 31,156 24,225 14,958 16,505 17,045 15,626 77,075 -8,467 59,958 -43,542 23,117 9,635 13,907 5,739 0,758 -0,268 -4,243 0,671 -15,207 -1,619 10,065 5,146 26,014 2,439 19,192 0,531 11,494 8,077 6,432 7,358 3,097 -1,524 14,655 6,651 1,482 4,455 9,028 -1,705 -19,193 -5,786 2,175 -11,255 0,000 115,950 -42,800 -34,513
17,355 8,629 18,962 12,617 14,652 16,537 4,159 9,383 -3,303 2,576 4,507 4,159 0,598 8,715 -6,514 -4,302 0,298 -6,257 -4,910 -5,815 -4,833 -11,690 -3,081 -1,704 -21,275 -6,700 -24,515 -23,797 50,821 -53,936 -2,285 -81,127 -7,829 -13,947 -7,973 -8,976 -14,031 -11,820 -16,814 -11,229 -27,353 -14,198 -8,448 -5,653 -11,679 -19,052 -2,463 -7,288 -1,001 2,947 -4,099 0,686 -2,872 -0,600 4,557 10,777 -3,659 0,093 2,330 5,732 -13,371 1,002 2,028 -6,754 0,000 118,603 36,956 -28,696
6,641 8,705 15,216 16,499 17,734 18,569 3,526 7,202 -11,104 -0,089 -8,700 1,536 -6,724 4,516 -21,029 -13,959 -2,320 -21,127 -19,296 -15,398 -23,835 -25,742 -25,515 -16,648 -39,176 -22,274 -45,626 -44,185 44,806 -89,249 -1,356 -65,368 -7,064 -4,608 -1,813 2,236 -9,117 -6,118 -16,245 -10,955 -31,378 -19,099 -9,467 -1,969 -22,931 -19,719 -9,873 -5,362 -7,627 -3,028 -15,549 -7,348 -10,427 -12,359 -5,756 0,138 -18,615 -11,209 -3,208 3,648 -16,864 -7,432 -1,406 -14,893 0,000 114,986 52,384 20,237
12,012 18,235 -2,905 16,770 1,307 3,466 -9,698 -4,256 -26,157 -16,044 -1,289 15,076 -5,816 0,191 -20,041 -15,914 12,372 -16,216 -7,480 3,338 -12,333 -3,848 -7,227 5,637 -21,015 -9,855 -32,296 -28,246 71,861 -70,826 58,689 28,973 17,905 24,636 17,337 21,853 4,139 5,458 -8,010 -2,375 -32,470 -21,331 -1,203 16,088 -0,198 15,370 -0,696 14,190 -2,567 -2,622 -17,385 -4,652 -17,937 -22,951 -3,959 0,986 -28,424 -16,020 0,260 3,899 -26,678 -23,021 -7,511 -30,576 0,000 123,815 -18,748 102,179
21,913 27,838 -18,190 18,928 -13,859 -6,193 -22,941 -13,048 -34,144 -28,872 7,434 29,177 -3,793 -1,407 -14,071 -13,347 23,673 -4,728 7,664 22,418 5,220 23,616 17,430 31,424 1,559 5,507 -15,312 -10,424 93,204 -36,220 92,533 85,543 27,031 34,277 18,862 22,352 1,679 4,276 -10,895 -3,938 -40,777 -28,788 -1,482 24,979 14,368 43,478 4,014 30,085 3,398 4,027 -12,240 3,116 -17,663 -19,993 3,882 14,152 -25,047 -8,762 9,166 15,318 -20,740 -23,294 -0,558 -30,553 0,000 129,214 -69,735 136,546
14,157 23,020 -18,233 23,392 -11,172 2,290 -22,187 -9,704 -32,158 -26,212 -6,235 26,896 -9,008 3,922 -20,433 -13,727 18,730 -6,501 2,364 17,127 -6,482 19,127 2,447 23,901 -11,515 -4,507 -30,186 -26,712 75,274 -68,294 60,266 38,705 3,353 13,830 -0,461 6,908 -12,321 -5,398 -21,324 -13,685 -46,826 -37,446 -14,468 17,434 -8,210 30,869 -10,817 24,813 -4,144 5,892 -15,131 3,961 -19,427 -16,734 -3,737 16,943 -22,172 -3,199 1,762 18,079 -16,830 -23,386 1,388 -23,642 0,000 103,646 -30,359 123,972
0,610 13,068 -8,109 25,625 2,999 13,214 -11,146 -2,224 -21,914 -16,933 -25,208 16,171 -14,133 3,168 -25,320 -18,991 6,381 -19,342 -15,079 -2,029 -30,011 -7,038 -28,050 -0,357 -33,244 -28,516 -52,938 -56,010 29,622 -127,011 29,159 -18,797 -6,288 6,368 -1,884 7,135 -8,488 -1,451 -17,790 -10,825 -37,256 -36,302 -16,862 11,129 -32,726 5,879 -24,601 11,052 -13,391 -2,305 -23,882 -7,757 -26,335 -26,974 -22,636 0,630 -20,229 -19,783 -24,340 1,570 -26,970 -45,704 -21,867 -39,827 0,000 60,755 26,637 108,785
3,653 13,043 -7,395 27,088 4,437 13,126 -8,920 -1,855 -25,120 -20,143 -27,460 15,584 -18,013 1,639 -29,708 -18,710 3,774 -24,406 -20,764 -7,880 -35,856 -12,991 -36,042 -4,198 -39,185 -34,062 -58,991 -63,300 3,623 -131,093 56,549 -17,143 11,631 22,299 13,458 20,439 4,831 10,771 -9,584 -2,579 -33,269 -39,745 -10,989 15,910 -31,602 6,158 -23,744 10,071 -15,538 -6,125 -28,466 -13,000 -35,668 -37,129 -31,265 -6,512 -33,726 -30,344 -36,651 -4,785 -43,299 -62,586 -36,034 -62,187 0,000 19,649 20,695 102,500
14,572 19,457 -13,960 31,582 -4,568 9,761 -12,519 -3,094 -28,544 -22,742 -16,621 26,764 -13,958 3,780 -28,556 -15,317 6,201 -14,536 -14,919 -1,089 -26,161 1,351 -22,484 9,299 -31,913 -25,842 -46,818 -50,027 -7,364 -89,530 83,194 3,496 9,273 16,424 5,441 11,664 -2,966 2,834 -15,196 -6,882 -39,816 -47,064 -17,404 15,364 -24,124 16,781 -22,186 15,282 -13,622 -0,252 -24,252 -4,270 -31,432 -26,040 -20,848 8,842 -31,470 -15,845 -20,413 11,550 -34,040 -44,852 -16,503 -43,763 0,000 -0,360 -14,100 92,727
12,205 24,563 -25,997 41,738 -12,590 14,698 -16,235 -0,986 -26,755 -22,088 -17,471 42,996 -15,499 12,728 -22,948 -14,218 7,695 -6,232 -14,135 4,513 -25,704 18,618 -17,827 21,041 -25,815 -23,761 -42,259 -43,156 -25,755 -69,858 98,290 38,425 -21,762 -7,225 -22,721 -9,064 -23,495 -13,321 -28,557 -17,872 -48,227 -54,877 -33,603 15,483 -31,653 29,837 -32,304 27,330 -13,653 11,652 -19,438 9,734 -24,096 -8,955 -9,565 35,542 -18,472 7,729 0,724 37,265 -2,209 -20,355 9,122 -9,648 0,000 -6,750 -29,326 130,307
0,518 22,033 -37,067 39,156 -18,597 12,186 -21,429 -4,210 -30,309 -25,106 -24,854 44,976 -21,665 12,436 -24,365 -13,154 10,491 -7,781 -14,696 8,523 -30,379 23,059 -21,482 20,672 -17,714 -19,679 -42,462 -39,405 -37,138 -81,510 126,816 65,087 -24,403 -0,248 -20,466 -2,611 -20,428 -6,750 -25,737 -13,122 -44,174 -52,010 -32,762 21,747 -33,580 42,012 -35,823 35,007 -17,394 11,757 -22,814 9,351 -30,327 -12,825 -15,649 32,366 -24,486 3,559 -2,377 33,838 -3,716 -27,146 2,799 -11,815 0,000 -14,219 -41,966 169,524
-7,676 12,839 -43,789 17,714 -24,871 -6,430 -28,910 -16,890 -40,896 -33,361 -28,743 26,651 -24,366 -4,403 -28,259 -17,093 12,168 -13,413 -11,115 9,095 -24,468 14,432 -15,645 15,268 -6,849 -13,958 -39,219 -33,222 -31,587 -79,749 144,946 62,063 9,512 28,605 9,869 19,294 2,699 12,874 -9,036 1,623 -31,864 -41,056 -13,786 25,025 -18,148 46,001 -23,443 29,023 -17,930 -2,243 -26,490 -5,277 -43,357 -31,277 -27,008 0,414 -42,739 -24,744 -21,798 2,613 -38,927 -59,805 -25,078 -45,698 0,000 -18,387 -68,944 144,432
-5,267 2,110 -37,467 4,128 -23,754 -12,733 -27,542 -20,462 -36,303 -27,746 -27,719 11,999 -22,270 -13,636 -27,664 -18,885 8,414 -11,282 -11,203 2,132 -18,127 5,674 -13,248 4,847 -5,120 -18,393 -37,557 -29,809 -35,604 -76,415 138,124 5,787 19,507 26,683 14,694 17,096 7,230 12,815 -2,684 4,493 -22,564 -33,151 -8,729 15,953 -12,785 29,173 -16,698 13,942 -17,526 -8,553 -24,192 -13,096 -38,567 -29,647 -29,063 -12,519 -35,605 -35,524 -33,462 -17,093 -46,535 -66,595 -38,163 -56,406 0,000 -39,494 -58,083 72,236
1,060 1,480 -19,963 16,060 -9,348 5,980 -12,723 -6,303 -17,560 -11,298 -25,125 14,414 -16,299 -3,088 -26,297 -13,014 -1,937 -6,119 -18,904 -8,657 -25,129 -1,498 -26,342 -4,214 -24,491 -32,867 -46,872 -42,812 -63,128 -67,584 144,613 -33,963 -10,544 -5,599 -11,996 -7,993 -10,070 -5,256 -12,898 -6,487 -22,472 -36,244 -24,470 2,715 -31,945 4,985 -27,736 3,214 -16,966 -0,832 -16,199 -4,573 -22,334 -10,818 -21,891 3,577 -16,436 -12,693 -23,392 1,582 -22,395 -39,599 -18,428 -24,732 0,000 -51,320 -4,830 30,659
1,113 11,807 -16,671 37,578 -2,695 23,275 -2,834 8,403 -6,474 -1,198 -26,968 28,949 -17,188 10,913 -23,275 -6,376 -5,554 -4,370 -23,704 -7,207 -38,133 1,635 -35,600 -1,893 -32,438 -35,445 -49,316 -43,406 -76,410 -41,659 183,716 13,323 -34,092 -16,878 -27,420 -14,513 -18,712 -9,713 -19,287 -9,866 -21,480 -34,876 -35,908 5,738 -50,396 7,077 -40,411 11,281 -20,769 9,037 -18,606 5,967 -17,752 1,039 -19,424 22,278 -11,382 7,491 -12,533 25,670 -1,266 -15,789 3,013 3,888 0,000 -40,485 14,588 62,911
-2,177 15,248 -31,819 35,328 -14,422 14,070 -9,854 3,209 -13,508 -8,089 -22,366 38,115 -14,101 9,353 -19,362 -5,886 1,728 -2,308 -15,245 5,596 -32,151 16,284 -19,042 13,235 -14,365 -17,979 -29,219 -21,145 -48,244 -9,828 220,832 89,297 -14,510 8,198 -8,869 5,863 -3,207 6,651 -8,357 3,996 -11,547 -22,644 -23,489 21,944 -31,572 35,662 -32,750 28,725 -18,714 9,919 -21,101 6,533 -24,793 -5,676 -22,212 17,801 -23,528 -5,624 -14,348 17,622 -16,182 -27,926 -8,160 -9,013 0,000 -6,762 -36,805 103,368
-4,629 7,746 -44,944 18,024 -27,804 -3,635 -22,676 -9,246 -24,927 -17,534 -18,795 33,140 -14,277 0,741 -21,808 -1,964 7,433 -1,399 -8,645 10,505 -17,071 25,962 -2,723 23,154 -2,039 -0,547 -12,965 -1,085 -2,788 19,037 178,508 125,561 15,010 30,228 12,209 21,730 11,626 20,509 4,525 16,025 -3,035 -10,023 -10,302 31,869 -6,582 51,823 -20,271 34,066 -12,632 7,425 -19,074 4,362 -29,645 -11,250 -24,032 4,725 -40,431 -16,498 -23,641 -2,423 -42,337 -44,341 -29,125 -33,531 0,000 19,507 -83,912 100,600
-7,533 -3,235 -35,725 12,839 -21,108 0,730 -19,052 -5,690 -18,841 -8,400 -26,482 17,403 -20,426 -2,510 -20,604 2,389 1,545 -2,418 -13,312 0,624 -20,515 18,238 -15,193 6,707 -11,401 -7,283 -21,129 -7,198 17,267 15,070 70,047 80,338 2,414 10,193 -0,526 5,533 1,357 9,008 -0,920 7,497 -4,112 -7,215 -18,678 20,076 -19,529 23,922 -23,549 17,879 -14,464 9,123 -17,507 5,936 -20,794 0,195 -22,448 -0,178 -27,496 -4,105 -25,674 -1,946 -27,794 -26,456 -19,597 -18,555 0,000 27,365 -39,511 62,047
-8,897 -7,267 -8,472 19,161 1,871 17,325 2,679 10,133 0,126 12,796 -27,059 7,430 -17,811 3,095 -12,705 1,952 -10,234 -2,725 -18,875 -11,770 -31,922 -5,461 -35,761 -17,510 -27,698 -22,253 -33,437 -20,019 -1,737 1,539 -9,137 15,209 -35,566 -28,585 -27,851 -21,994 -17,987 -13,590 -13,848 -7,645 -5,440 -7,147 -28,145 -2,272 -44,723 -15,870 -30,554 -1,272 -16,514 5,193 -11,446 5,456 -7,521 16,167 -16,337 13,243 -1,805 11,830 -15,414 10,226 6,714 7,691 7,788 20,242 0,000 23,236 31,759 19,585
-4,849 -4,383 1,201 11,280 7,254 10,304 10,674 8,452 10,151 14,321 -12,796 4,768 -6,430 3,450 -0,884 -0,504 -9,194 -0,953 -9,426 -7,515 -20,744 -12,773 -23,723 -11,977 -11,463 -12,679 -10,214 -7,755 1,074 41,936 23,710 25,587 -32,196 -25,660 -22,407 -19,219 -13,214 -13,054 -9,761 -5,814 3,592 -0,854 -14,578 -8,870 -31,293 -15,926 -17,279 -3,930 -7,495 -1,782 -0,633 0,376 4,048 15,785 -5,899 12,499 2,668 8,668 -2,509 12,038 26,317 16,371 19,782 31,772 0,000 38,815 9,427 -9,503
0,223 -6,171 -14,707 -12,272 -12,791 -14,525 -4,816 -10,666 1,412 -2,070 -0,042 4,475 1,984 -2,159 11,431 -1,229 2,116 4,503 6,563 6,701 5,168 5,956 9,011 11,234 28,139 8,770 28,943 22,394 48,360 102,744 90,656 67,598 12,047 12,158 10,194 8,610 9,814 6,373 8,577 9,970 18,493 11,435 7,722 2,945 9,454 14,966 5,629 5,783 0,980 -0,624 3,225 -3,166 5,833 4,704 -3,966 -0,951 -2,293 -7,443 -6,399 -3,696 19,488 -9,098 0,983 3,611 0,000 73,037 -74,344 -39,607
0,483 -13,894 -23,364 -27,315 -24,401 -24,186 -15,322 -18,093 -3,641 -6,028 2,910 0,761 -0,437 -4,733 14,773 2,678 4,569 10,680 11,039 8,597 17,170 15,885 22,040 18,004 43,556 19,891 45,498 38,520 86,602 133,101 99,516 76,555 35,822 26,732 26,964 20,280 22,732 17,731 23,334 22,475 32,241 26,043 15,728 8,605 27,559 23,713 14,631 5,404 2,125 1,952 3,667 -3,379 4,152 2,768 -10,344 -10,712 -10,458 -18,077 -22,483 -21,282 2,039 -27,877 -22,928 -19,447 0,000 97,166 -100,203 -74,456
-4,503 -18,267 -5,420 -15,919 -6,681 -4,588 1,099 2,155 17,757 16,030 -4,287 -3,168 -5,310 2,861 14,993 14,675 -5,644 11,090 2,056 -3,312 1,503 1,809 -0,641 3,267 22,993 15,640 34,082 29,852 78,610 105,272 35,522 36,003 3,472 -3,941 3,849 -0,507 8,703 4,935 16,138 16,586 41,211 33,312 4,028 -3,129 -0,600 -5,252 0,165 -8,121 -2,917 4,459 3,369 3,449 15,366 20,876 -12,744 -4,690 -6,936 -1,721 -24,759 -12,334 15,372 1,360 -10,896 7,851 0,000 68,312 -32,742 -83,707
-5,154 -16,567 19,626 -0,422 20,060 13,550 25,192 22,933 39,788 39,579 -5,059 -8,043 0,673 3,657 17,659 18,618 -14,682 7,668 -4,582 -13,522 -14,007 -18,296 -22,218 -13,815 1,897 0,756 17,423 17,232 52,611 70,277 -18,886 -0,827 -38,329 -42,201 -26,266 -29,165 -10,635 -16,349 0,527 1,918 36,303 32,051 -8,153 -20,112 -29,158 -37,869 -10,361 -22,427 -1,954 1,729 8,968 8,431 30,778 38,822 -0,428 6,260 15,166 22,389 -2,165 10,641 51,295 48,255 26,958 58,949 0,000 40,729 23,957 -67,792
-1,338 -17,629 22,213 -10,959 20,845 3,862 26,503 16,337 36,495 36,959 5,299 -15,594 5,877 -5,135 20,834 13,611 -13,506 8,440 0,973 -12,384 -2,392 -20,619 -9,885 -15,665 5,767 -1,778 28,316 23,214 40,737 91,604 -29,818 2,553 -37,061 -46,203 -27,141 -34,768 -12,054 -22,168 -1,502 -1,898 32,198 30,921 -2,759 -26,670 -16,901 -40,822 1,094 -27,063 6,930 -0,787 18,585 8,009 38,149 39,863 15,648 6,989 34,855 25,501 19,421 16,508 57,347 61,779 44,807 76,178 0,000 41,930 -0,628 -76,319
-2,932 -25,329 5,295 -37,414 -0,331 -20,412 7,518 -5,157 17,916 17,658 12,761 -23,588 4,832 -11,305 22,065 8,906 -6,671 13,875 11,220 -4,414 18,825 -8,930 13,883 -5,694 21,288 12,894 52,621 36,630 52,411 130,594 -10,391 28,476 -7,273 -23,457 -6,416 -19,650 1,882 -12,368 10,566 5,596 34,523 33,792 11,748 -21,051 15,465 -22,353 17,705 -23,921 12,576 -3,654 21,801 1,663 34,141 26,559 16,331 -5,309 29,437 7,664 13,011 -3,967 34,573 33,964 23,968 46,905 0,000 54,513 -54,469 -96,952
-9,980 -28,705 -4,563 -49,426 -10,953 -28,294 -2,075 -14,006 10,339 8,192 9,588 -23,969 4,648 -9,408 28,388 6,935 -5,646 15,259 15,479 0,480 24,769 0,050 20,306 0,849 35,632 17,932 62,704 41,817 61,931 139,325 -3,034 29,989 13,999 -1,519 11,526 -0,849 16,551 1,157 22,375 14,053 41,433 39,690 21,181 -12,440 24,168 -10,615 22,563 -20,592 12,815 -2,804 20,038 -4,053 28,359 16,340 4,771 -13,615 17,517 -7,946 -8,975 -24,776 22,781 6,085 1,141 15,046 0,000 50,190 -72,297 -117,469
-11,696 -26,957 3,339 -42,771 -2,501 -19,824 7,751 -4,789 21,139 16,043 4,884 -22,922 4,995 -5,597 34,109 7,895 -8,684 12,968 13,437 -2,522 17,212 -9,008 10,547 -0,703 37,832 15,918 59,765 38,518 53,520 117,122 -11,327 3,041 8,157 -4,349 8,577 -1,276 16,612 2,898 23,256 14,615 48,845 43,984 20,648 -15,006 11,895 -18,322 17,184 -23,999 9,420 -4,311 18,479 -5,363 31,153 18,832 -1,723 -19,979 10,416 -6,167 -17,343 -23,378 32,097 6,925 -0,853 15,082 0,000 18,273 -40,492 -126,942
-5,716 -24,183 16,721 -34,749 10,063 -11,657 18,615 4,471 28,913 24,957 6,864 -25,063 8,040 -6,398 30,404 10,965 -11,434 12,274 12,385 -8,089 14,274 -17,414 4,838 -6,375 35,319 12,494 51,308 35,110 47,405 89,242 -20,242 -46,753 -5,041 -19,032 -2,721 -13,408 8,266 -4,844 15,663 9,047 44,678 42,503 17,773 -22,463 3,015 -30,866 15,020 -30,306 8,971 -6,620 20,763 -3,302 36,658 25,885 2,926 -14,876 18,082 2,969 -8,481 -9,943 47,768 24,720 13,998 34,509 0,000 -23,151 -16,585 -144,389
1,889 -25,382 22,724 -39,084 11,762 -12,069 19,211 2,412 23,149 21,703 12,331 -27,873 9,537 -7,732 27,632 13,251 -12,074 13,533 14,766 -9,373 19,666 -18,036 9,090 -8,136 30,569 8,984 51,478 30,932 38,606 91,030 -32,976 -96,238 -12,526 -32,467 -11,795 -25,755 -2,739 -16,641 5,245 -3,199 32,507 30,894 14,226 -32,233 5,205 -41,161 19,490 -37,938 11,317 -4,643 25,508 0,724 39,784 29,186 14,141 -5,781 31,795 16,983 5,885 3,455 57,932 36,563 34,949 51,864 0,000 -60,215 -18,222 -187,627
7,073 -24,096 23,189 -45,903 8,007 -16,005 14,572 -4,402 24,474 14,871 18,816 -28,411 11,388 -8,231 28,626 5,525 -9,268 14,364 19,256 -6,179 26,389 -14,217 16,554 -5,415 29,446 7,840 62,354 26,009 31,915 87,382 -40,742 -116,380 -8,522 -31,264 -9,633 -25,551 -4,688 -19,459 2,840 -8,601 33,644 23,467 14,962 -34,566 15,394 -41,853 25,893 -37,611 14,062 -3,902 27,780 -1,001 43,284 25,801 20,682 -4,970 34,378 14,035 13,428 4,553 52,974 34,257 40,313 52,698 0,000 -73,593 -35,775 -201,626
5,413 -24,757 20,187 -49,127 7,058 -22,100 12,853 -9,479 25,567 11,036 23,645 -29,978 19,554 -16,058 33,878 -6,151 -8,102 13,631 21,920 -3,145 30,969 -15,011 23,293 -6,974 40,529 7,184 69,357 26,024 25,333 75,184 -40,566 -106,869 -0,751 -23,306 -1,631 -18,469 2,860 -14,098 8,594 -5,491 41,061 25,723 21,580 -30,201 23,512 -36,745 30,729 -34,017 19,417 -8,824 30,868 -8,491 45,716 19,622 22,422 -12,578 32,350 -6,657 13,169 -5,644 47,996 27,989 32,933 42,631 0,000 -69,067 -48,050 -182,453
-2,055 -25,025 10,931 -38,294 4,383 -18,815 8,894 -5,204 21,963 12,909 13,462 -25,429 13,995 -15,743 23,535 -0,148 -6,931 9,563 14,885 -1,687 20,503 -13,065 13,237 -7,642 33,727 11,090 56,521 27,506 20,520 58,373 -23,538 -41,697 -2,444 -18,271 -0,473 -13,307 6,965 -6,061 12,052 1,584 40,098 28,815 17,536 -18,510 17,114 -29,062 22,549 -26,748 14,944 -7,840 20,999 -5,632 35,515 17,236 13,901 -13,693 16,202 -8,745 4,936 -11,358 32,541 22,561 18,953 31,533 0,000 -76,997 -47,267 -100,506
-4,995 -22,716 11,740 -23,015 8,151 -8,159 10,998 3,792 23,852 19,852 4,996 -20,000 4,896 -10,598 15,380 5,152 -8,819 7,259 6,519 -4,517 7,737 -13,687 -0,343 -9,756 13,063 10,028 42,274 22,958 11,884 33,644 -2,338 -8,789 -6,781 -19,189 -2,413 -13,378 6,612 -3,292 12,886 5,440 37,494 30,414 10,482 -12,098 4,405 -27,239 12,337 -23,778 8,854 -5,428 11,613 -0,987 28,903 18,694 4,370 -12,915 13,073 -3,366 -4,016 -11,983 21,320 22,246 7,584 25,979 0,000 -95,468 -29,904 -43,086
-4,073 -15,146 19,214 -10,762 16,641 2,419 16,907 11,599 27,550 26,095 2,675 -14,403 2,259 -3,920 15,059 9,351 -10,839 7,557 3,354 -7,784 1,126 -14,380 -9,525 -9,195 0,346 1,340 29,800 14,632 -3,917 18,167 19,675 -5,852 -7,381 -17,668 -2,466 -10,398 7,441 -1,325 14,408 7,952 35,756 30,250 7,462 -9,156 -6,650 -26,878 4,658 -22,307 7,254 -2,485 9,493 2,270 27,440 19,873 0,398 -9,747 14,401 3,334 -9,460 -7,545 20,000 21,459 3,902 24,479 0,000 -122,223 -3,381 -26,263
-3,450 -9,622 19,793 -9,477 18,500 3,109 19,181 11,989 26,802 25,119 6,010 -11,060 9,665 -0,626 16,456 11,879 -7,930 8,879 4,639 -5,988 3,920 -11,958 -6,570 -5,976 2,655 0,189 27,356 12,177 -24,517 5,372 22,150 -9,960 -3,474 -12,047 0,850 -4,420 11,228 0,717 17,996 11,670 36,357 29,565 11,990 -6,563 -2,798 -20,625 9,011 -17,086 10,785 -0,303 13,464 2,815 26,706 17,791 3,265 -7,006 11,326 5,152 -6,634 -4,372 21,602 16,209 3,645 23,621 0,000 -142,695 -8,045 -17,918
-1,588 -11,108 11,485 -18,414 10,074 -6,723 13,011 5,983 21,219 19,087 10,934 -8,412 10,940 2,358 20,008 15,011 -2,038 10,895 9,730 0,460 13,358 -3,567 5,759 2,532 19,224 15,218 37,955 24,941 -37,466 14,109 30,569 10,523 6,602 -1,925 8,949 1,788 17,144 5,182 23,298 16,951 37,900 30,317 19,147 -2,438 13,152 -8,392 19,978 -10,875 15,140 1,097 16,290 4,650 24,209 15,937 7,234 -7,438 3,016 6,183 -2,732 -4,805 21,265 11,373 0,531 18,979 0,000 -160,237 -46,477 -5,224
-0,734 -11,267 4,067 -18,021 2,963 -9,718 7,003 3,300 17,125 15,381 9,235 -5,888 2,752 0,752 19,621 14,978 2,449 11,171 11,069 4,008 14,066 4,433 10,428 8,075 22,247 20,880 43,497 31,064 -41,114 13,042 55,137 32,429 11,561 3,856 12,308 4,248 17,670 7,911 24,622 19,237 36,673 29,060 17,150 3,303 17,093 -0,660 19,025 -6,041 12,294 2,720 12,127 7,454 22,634 15,876 6,028 -12,240 8,245 5,174 -2,809 -6,306 14,613 9,548 -3,883 14,380 0,000 -160,301 -60,107 20,108
1,579 -3,371 12,567 2,494 13,828 6,572 14,597 14,867 23,659 21,913 2,771 1,293 0,434 4,928 11,492 13,362 0,042 9,228 3,445 -1,923 -0,179 0,587 -7,312 1,656 -1,417 8,466 21,847 11,012 -54,422 -23,483 43,529 25,992 2,239 -0,942 5,987 1,515 13,680 6,027 20,891 17,151 29,158 21,857 7,315 5,527 -3,591 -8,202 5,504 -5,649 7,064 6,141 6,972 9,426 20,161 18,362 0,690 -6,205 8,795 5,887 -8,192 -3,047 9,640 14,169 -3,809 15,446 0,000 -171,589 -25,041 51,270
3,869 2,192 26,400 15,997 28,361 17,784 27,344 26,198 32,077 31,717 -0,934 4,249 1,585 10,035 7,687 15,157 -6,472 5,827 -4,125 -10,785 -13,210 -18,707 -25,328 -10,868 -19,052 -3,822 -3,614 -7,001 -85,331 -57,739 14,936 -3,992 -12,196 -12,918 -3,993 -5,650 7,764 -0,886 15,961 12,766 20,168 17,841 1,125 -2,037 -24,484 -23,196 -4,669 -10,841 5,329 -0,743 6,764 7,112 18,310 20,180 -1,984 4,953 7,589 8,915 -11,371 2,767 12,762 17,771 -0,456 20,970 0,000 -207,800 19,921 54,924
1,001 0,269 19,047 8,182 23,555 7,971 20,584 16,138 21,697 20,663 -2,928 0,037 4,080 2,752 6,403 8,819 -4,612 2,704 -1,754 -8,328 -9,208 -18,136 -17,974 -8,487 -8,944 -7,424 -4,733 -10,344 -102,445 -66,350 14,992 -6,195 -14,456 -14,879 -5,105 -7,349 5,104 -5,121 11,430 7,606 8,831 7,128 3,704 -4,005 -18,486 -19,556 -1,646 -8,658 5,933 -6,198 6,578 1,310 12,565 8,899 -1,017 -0,400 6,919 0,550 -9,629 2,958 11,179 5,268 -1,468 12,634 0,000 -216,039 6,705 64,708
3,813 -0,563 -1,367 -12,237 2,504 -15,509 -2,992 -7,144 -3,878 -4,237 3,044 -1,644 4,144 -10,449 4,420 -1,160 8,533 2,218 9,942 4,501 10,971 -0,726 9,702 6,180 16,323 4,961 12,267 4,591 -81,227 -41,408 45,347 18,394 12,471 8,418 12,785 6,219 12,252 0,552 11,399 7,062 -3,267 -1,720 14,896 3,769 15,340 6,648 16,102 0,904 9,579 -8,070 5,562 -3,401 4,394 -4,449 4,834 -6,260 1,908 -12,468 0,076 -2,309 4,677 -10,972 -3,425 -4,681 0,000 -195,295 -54,064 67,621
7,385 -0,202 -10,832 -24,057 -11,286 -27,674 -17,647 -20,049 -17,832 -18,584 5,127 -3,850 -1,061 -15,313 3,616 -5,705 14,441 0,648 16,079 9,583 20,406 6,524 19,423 11,134 22,127 12,890 21,579 12,228 -53,754 -20,438 51,126 11,583 38,405 29,959 29,004 20,477 19,815 6,677 13,006 7,425 -5,136 -3,860 19,967 6,641 31,843 18,137 23,973 3,415 11,641 -7,524 4,975 -5,258 1,470 -8,173 5,334 -8,761 -12,737 -18,504 -0,510 -7,773 -1,577 -19,308 -5,034 -17,450 0,000 -182,139 -75,485 35,615
6,018 1,311 3,708 -8,339 1,498 -9,676 -5,498 -7,976 -7,964 -8,814 -0,157 -1,465 -2,785 -3,870 0,339 -3,129 4,601 -3,325 6,421 -1,695 3,296 -6,411 -1,896 0,080 -0,951 2,693 -0,411 -6,993 -60,528 -46,770 2,943 -32,584 19,461 13,180 14,428 11,598 10,358 -0,753 5,228 -1,091 -6,641 -9,471 8,272 0,265 5,652 -2,388 8,724 -4,858 4,843 -3,941 0,378 -4,061 2,305 -3,873 -1,064 -4,147 -16,847 -9,809 -9,802 -4,078 -0,005 -10,646 -4,219 -16,924 0,000 -197,297 -18,318 13,200
0,232 2,366 22,842 17,714 23,952 15,120 14,928 11,276 9,268 7,823 -4,472 3,776 0,637 5,002 -0,916 -2,160 -5,452 -7,411 -5,253 -12,235 -18,644 -21,912 -27,746 -14,145 -25,813 -17,295 -29,262 -30,179 -93,130 -86,865 -53,619 -38,492 -16,570 -16,031 -7,642 -5,552 -2,147 -9,451 -5,292 -7,339 -7,375 -12,054 -3,959 -4,254 -28,629 -24,166 -9,449 -9,992 -1,333 -3,132 -3,904 -3,191 2,821 0,086 -6,985 -1,778 -1,736 -2,069 -13,632 1,499 4,514 -0,678 -1,196 -6,070 0,000 -200,793 45,618 49,616
3,782 4,826 18,069 17,667 19,565 10,369 6,864 5,655 -2,634 -2,578 1,049 7,911 1,353 -0,095 -2,377 -7,061 2,186 -9,850 3,986 -0,874 -10,062 -10,273 -14,373 -8,530 -19,470 -13,837 -27,895 -23,262 -86,826 -94,157 -50,187 -22,814 0,214 1,795 8,778 8,147 5,491 0,747 -5,359 -3,092 -13,806 -11,281 5,662 4,840 -14,118 -8,872 -1,163 -0,265 0,389 -4,815 -7,048 -5,794 -10,025 -10,082 -7,808 -6,333 -2,474 -11,773 -11,436 -3,662 -11,803 -14,590 -3,474 -18,103 0,000 -168,500 16,692 71,750
9,663 1,864 -5,223 -8,535 -6,943 -16,382 -19,721 -17,684 -29,203 -27,045 4,657 3,903 -1,727 -10,298 -7,359 -10,899 16,033 -8,874 17,680 14,401 13,279 12,673 15,989 8,350 6,986 6,001 -1,326 -1,620 -37,521 -64,607 -15,484 -11,971 32,943 28,367 29,044 22,230 12,203 7,774 -2,010 -2,310 -21,034 -19,061 17,725 13,216 25,130 15,370 19,191 10,401 6,300 -5,002 -5,181 -6,815 -16,320 -19,971 -0,069 -5,364 -9,446 -20,070 -2,992 -10,156 -23,918 -28,846 -5,949 -34,247 0,000 -128,485 -58,128 55,341
6,355 -2,537 -10,312 -24,229 -12,979 -24,478 -25,184 -27,229 -33,837 -31,274 0,384 -5,111 -3,466 -14,143 -15,322 -12,413 13,230 -9,976 11,459 5,163 15,528 4,619 14,130 4,997 6,006 3,364 -2,745 -10,379 -7,839 -64,819 -23,807 -50,334 20,024 11,981 12,488 3,829 -1,615 -9,507 -10,985 -15,631 -32,398 -31,227 8,597 -0,748 26,357 6,859 19,498 2,458 8,426 -6,432 -0,581 -6,663 -8,757 -17,688 8,862 -0,822 -6,469 -12,760 5,186 -1,768 -12,396 -22,104 -1,538 -27,180 0,000 -124,016 -50,037 23,650
8,809 -5,114 19,990 -22,114 10,824 -8,674 -0,858 -16,977 -14,702 -16,408 5,725 -19,079 1,768 -11,598 -6,095 -17,199 -3,435 -10,637 2,133 -16,198 6,838 -27,570 -7,824 -14,941 -17,571 -23,277 -21,744 -38,691 -39,964 -78,609 -113,671 -158,745 -2,974 -18,135 -3,282 -15,577 -11,208 -24,740 -18,715 -29,102 -34,107 -33,044 3,507 -25,896 -0,392 -33,774 14,044 -25,336 7,723 -10,371 7,122 -13,034 4,247 -11,786 10,478 -6,748 0,738 -5,032 6,086 3,027 7,859 -10,111 13,798 -7,692 0,000 -167,289 32,230 -76,805
19,921 4,301 40,840 1,290 27,490 9,428 18,149 -1,310 -0,204 -6,203 16,087 -9,218 9,705 -3,253 1,971 -19,306 -7,851 -8,215 5,995 -14,944 0,931 -28,980 -13,778 -16,161 -27,978 -35,421 -29,313 -42,011 -80,940 -63,826 -184,204 -152,705 0,336 -11,470 5,712 -3,882 -1,538 -14,767 -13,331 -23,042 -23,468 -22,730 9,191 -21,760 -11,137 -38,465 11,570 -25,349 5,270 -8,711 5,176 -16,043 1,524 -12,361 4,592 -8,417 0,540 -5,558 2,154 2,272 4,472 -9,125 19,262 -4,868 0,000 -156,287 67,183 -94,576
16,563 8,256 19,457 11,709 13,759 4,518 8,607 -0,099 -5,313 -13,115 14,950 9,528 9,294 -0,068 0,460 -11,961 1,114 -2,691 15,302 6,186 5,101 -1,034 2,930 5,522 -10,820 -10,390 -10,511 -16,240 -71,370 -40,186 -143,829 -40,026 10,746 8,582 14,643 11,244 8,775 1,252 -3,194 -8,679 -13,520 -15,339 13,443 2,287 3,557 -1,285 10,647 -0,717 4,783 -4,223 -0,549 -8,708 -9,898 -15,766 -2,102 -5,851 -11,581 -12,652 -2,491 -1,461 -15,172 -18,344 2,365 -20,808 0,000 -74,022 13,542 -4,262
3,688 1,300 -13,565 -5,174 -12,401 -15,187 -20,823 -17,704 -28,492 -28,302 -1,456 9,118 -7,566 -7,072 -12,284 -5,879 12,393 -6,630 15,348 14,636 8,362 16,507 14,885 14,659 7,294 14,051 -4,549 1,788 -3,134 -24,394 -57,128 22,128 21,085 20,337 16,158 13,111 3,089 2,347 -6,372 -8,802 -27,863 -22,306 6,597 12,167 18,931 23,539 9,584 12,637 1,438 -2,155 -7,080 -2,347 -18,276 -16,816 -3,952 -3,121 -15,584 -13,972 -6,086 -6,509 -28,565 -26,529 -13,542 -40,527 0,000 -11,034 -34,398 48,693
-1,029 -3,558 -15,250 -13,538 -14,480 -20,938 -30,205 -27,423 -37,298 -27,643 -17,537 -6,483 -18,488 -17,095 -27,533 -11,074 15,069 -17,709 1,927 -0,777 -1,263 -1,368 -3,077 -7,774 -13,554 0,540 -31,238 -14,941 36,018 -51,986 -53,539 -17,733 16,531 12,045 9,667 4,101 -10,299 -12,839 -17,580 -20,022 -46,762 -29,711 -4,448 -0,511 5,002 7,494 3,260 3,097 -2,967 -7,856 -11,512 -7,599 -19,654 -14,817 -3,252 -4,107 -10,230 -12,404 -5,671 -7,109 -25,768 -20,423 -10,163 -36,975 0,000 -13,202 15,413 40,058
5,419 3,279 15,763 5,234 10,777 -0,291 -4,501 -11,096 -16,638 -8,954 -11,196 -7,434 -10,112 -8,803 -22,906 -13,973 5,056 -18,514 -7,843 -15,655 -14,600 -24,633 -28,355 -24,488 -40,854 -24,625 -55,040 -41,111 2,566 -80,895 -107,828 -63,989 0,809 -1,938 2,599 -1,134 -11,013 -20,341 -17,877 -21,446 -43,738 -28,986 -4,860 -12,766 -18,247 -18,511 -2,375 -9,427 -4,104 -11,611 -9,650 -14,338 -14,282 -12,989 -4,310 -6,762 -7,729 -8,852 -6,000 -3,170 -9,795 -12,350 -2,787 -22,135 0,000 -68,211 88,312 18,075
26,113 14,603 36,827 15,931 21,919 8,740 14,754 0,705 -3,917 -6,045 17,366 6,580 10,411 -0,092 -2,361 -12,755 0,776 -5,395 7,113 -6,374 -0,913 -14,133 -11,164 -7,530 -18,482 -27,507 -41,990 -35,207 -35,364 -37,489 -127,120 -66,491 7,237 1,427 9,864 3,705 -2,086 -14,189 -11,140 -16,118 -37,030 -29,300 8,946 -10,925 -1,892 -14,331 11,589 -8,071 4,718 -4,891 2,056 -12,137 -6,866 -12,372 6,042 -5,251 -2,860 -4,847 8,130 8,796 13,485 -11,270 10,545 -12,765 0,000 -83,665 73,856 -29,953
30,998 16,823 16,062 11,238 1,860 1,557 2,119 -0,757 -11,667 -13,969 24,510 18,170 12,085 5,337 2,802 -2,397 6,299 5,128 18,307 11,311 13,615 17,369 15,518 18,234 13,167 -4,867 -18,524 -6,966 -32,040 5,460 -116,301 -21,443 19,874 13,864 14,041 8,270 -0,291 -4,669 -7,908 -8,002 -28,080 -23,746 9,007 4,472 21,990 15,383 18,002 7,740 7,976 9,996 4,454 3,997 -6,322 -2,839 12,652 7,199 -10,576 7,167 19,577 19,414 12,460 -8,956 14,394 -6,410 0,000 -33,449 18,225 -22,600
16,747 6,708 -9,730 1,631 -14,379 -7,606 -15,661 -8,345 -18,363 -14,270 5,427 13,030 0,472 1,543 -8,554 2,384 8,999 0,339 7,233 5,667 7,829 13,996 13,668 13,666 2,607 3,279 -13,528 1,611 -1,673 -3,856 -110,883 5,605 16,475 10,598 7,014 1,219 -7,863 -5,439 -9,307 -6,469 -19,290 -16,049 -4,153 6,795 21,152 24,091 8,270 13,372 1,755 5,532 -4,018 6,764 -9,658 3,260 5,527 15,415 -4,766 5,277 15,110 12,635 -12,724 -10,334 -2,014 -8,855 0,000 28,718 31,448 14,477
0,012 -4,908 -10,431 -1,267 -10,070 -6,392 -17,433 -9,755 -18,377 -5,242 -14,751 -2,894 -13,252 -5,636 -28,511 -4,486 4,713 -11,806 -9,028 -11,260 -10,636 -9,019 -12,108 -13,261 -35,360 -9,096 -34,204 -10,208 7,288 -44,243 -116,909 -23,090 2,734 -2,672 -1,052 -7,818 -15,292 -12,628 -16,009 -10,324 -20,230 -10,057 -14,360 -3,181 -2,043 2,995 -5,138 1,683 -8,280 -5,707 -15,177 -3,611 -19,098 1,148 -8,520 0,186 -11,370 -2,547 -0,957 -4,702 -46,727 -11,461 -15,417 -15,232 0,000 36,259 98,368 19,051
0,623 -5,278 3,153 -0,273 -2,297 -4,399 -7,525 -5,850 -11,470 -0,499 -10,211 -6,357 -17,245 -6,591 -28,255 -6,366 -1,093 -12,522 -6,004 -12,757 -16,167 -17,685 -21,795 -20,250 -41,139 -10,644 -33,386 -14,808 -7,615 -48,949 -108,647 -60,077 0,371 -5,520 -0,734 -7,409 -13,947 -15,091 -17,158 -12,210 -17,418 -10,309 -9,445 -11,462 -9,050 -9,637 -4,669 -8,600 -12,542 -9,877 -15,218 -9,225 -16,814 -0,537 -9,579 -5,955 -12,028 -0,464 -1,927 -5,556 -40,401 -3,517 -4,017 -7,253 0,000 -6,612 124,032 -14,975
16,526 -2,148 8,558 -5,298 -3,023 -10,257 -0,988 -6,159 -5,170 -2,699 11,118 -2,248 -3,935 -6,353 -8,949 -4,257 -1,869 -0,503 9,927 -1,379 3,109 -5,973 1,436 -4,374 -14,496 -1,476 -6,436 2,394 -14,910 -7,491 -103,740 -64,320 11,536 -1,901 2,763 -6,735 -9,218 -14,339 -11,721 -11,035 -10,989 -9,982 0,844 -13,163 12,807 -4,969 7,881 -9,868 -3,483 -8,193 -1,589 -7,893 -3,708 2,745 2,569 -1,940 1,615 2,105 12,924 1,144 -15,221 3,136 6,600 2,281 0,000 -13,944 111,037 -57,436
20,829 -0,584 -1,898 -5,145 -10,897 -10,025 -7,494 -8,452 -8,184 -6,130 11,652 5,671 -2,065 -1,439 -5,663 -0,826 0,116 3,769 10,206 2,475 10,383 7,559 12,889 6,896 -3,895 7,021 1,722 12,740 -17,320 21,413 -106,743 -32,538 15,587 0,914 0,969 -7,643 -11,135 -13,645 -11,064 -11,462 -11,479 -9,989 -3,373 -6,445 22,781 8,906 9,319 -1,093 -0,347 1,057 0,449 0,457 -3,066 8,226 6,252 7,512 -1,047 7,148 16,567 8,524 -11,940 2,027 1,109 -0,235 0,000 24,945 114,579 -52,819
13,378 0,696 -11,422 3,401 -16,358 -4,747 -16,874 -8,481 -14,813 -5,742 -3,159 9,821 -11,079 1,430 -18,905 -0,099 2,313 -3,839 -1,732 -4,190 -2,777 7,703 -1,213 -0,395 -21,943 2,268 -17,796 4,967 -17,272 7,957 -117,544 -3,068 14,956 4,974 0,540 -3,872 -14,927 -11,772 -14,944 -11,349 -14,890 -8,260 -13,559 1,366 15,590 17,969 1,188 8,710 -6,793 5,926 -11,560 4,364 -12,630 8,937 -0,316 11,669 -10,987 8,568 12,883 10,237 -26,221 -2,527 -8,393 -5,773 0,000 53,358 145,454 -11,380
6,224 -0,772 -14,479 4,616 -18,337 -5,952 -19,339 -10,221 -17,828 -5,885 -10,206 8,379 -15,631 -1,599 -26,581 -2,117 3,141 -8,514 -4,660 -5,439 -10,403 3,251 -12,456 -7,666 -32,793 -3,632 -25,605 -1,163 -18,718 -8,097 -118,595 -2,984 14,366 9,564 2,804 2,115 -15,052 -9,671 -16,569 -10,211 -14,735 -6,542 -12,914 3,126 10,327 17,998 -0,325 11,251 -10,973 1,299 -18,194 -0,499 -17,432 2,343 -8,245 7,273 -14,730 3,016 6,933 2,461 -32,772 -9,767 -11,797 -10,019 0,000 41,451 166,816 2,549
10,584 -2,960 -6,523 -3,280 -17,698 -12,894 -16,333 -12,000 -16,843 -7,093 1,905 3,290 -8,357 -7,988 -21,373 -0,730 2,276 -4,365 5,606 -1,662 0,869 0,149 -2,485 -6,743 -22,872 -2,767 -16,357 5,658 -27,948 -3,344 -113,389 -37,436 16,597 6,661 3,923 -1,071 -15,180 -13,880 -17,876 -11,916 -17,386 -7,879 -4,953 -5,382 19,710 12,741 10,187 3,248 -7,428 -4,667 -12,238 -4,630 -13,262 2,054 -1,922 -1,134 -11,783 2,020 11,722 -0,146 -26,071 -5,498 -3,833 -6,254 0,000 12,932 173,091 -35,737
21,526 -6,510 9,952 -9,324 -10,048 -11,724 -8,912 -7,622 -10,024 -4,488 14,138 -5,536 0,109 -14,506 -10,912 -0,192 -1,923 -0,029 12,390 -2,826 12,704 -6,175 5,394 -8,414 -13,230 -6,077 -8,313 6,887 -55,855 15,396 -133,058 -91,366 8,213 -13,001 -6,156 -19,977 -25,544 -28,816 -27,554 -24,308 -25,278 -14,185 -5,882 -21,200 23,577 -7,331 16,145 -12,535 -1,798 -5,827 -1,079 -3,181 0,019 13,913 13,948 0,426 7,189 12,169 27,794 9,259 -0,961 15,121 20,787 16,458 0,000 4,849 202,555 -100,387
16,187 -10,983 14,975 -5,696 -3,852 -1,171 -3,376 -0,102 -4,516 0,782 3,092 -9,859 -4,325 -6,877 -11,713 1,829 -9,953 -3,532 5,779 -10,729 0,595 -13,199 -10,351 -18,841 -20,934 -11,704 -17,767 -3,276 -80,298 9,649 -162,076 -119,249 -7,658 -26,889 -18,851 -29,760 -33,682 -35,058 -33,613 -31,093 -29,308 -17,101 -16,006 -27,251 5,620 -23,427 3,741 -20,334 -7,555 -2,655 -2,799 -1,355 1,640 19,184 7,733 6,726 9,074 20,447 19,316 14,359 9,735 22,020 22,904 22,297 0,000 6,158 252,499 -122,764
5,521 -9,872 6,705 -4,620 -7,681 -1,012 -7,270 -2,276 -7,757 0,050 -8,532 -7,073 -12,302 -0,180 -19,410 2,591 -10,524 -8,950 -0,122 -13,233 -10,154 -13,425 -21,756 -17,981 -27,000 -15,850 -22,934 -5,505 -75,797 1,925 -167,036 -90,323 1,306 -9,261 -9,466 -13,019 -23,492 -22,401 -24,237 -21,427 -17,966 -8,335 -13,257 -19,024 2,591 -12,737 -2,534 -14,249 -13,858 -3,757 -13,520 -7,170 -10,273 7,145 -10,654 -0,836 -13,710 11,279 -3,774 2,848 -9,693 -4,128 -5,873 -3,457 0,000 -1,416 267,752 -99,585
1,253 -8,089 -10,081 -11,614 -22,131 -15,391 -19,023 -14,885 -18,225 -8,283 -9,825 -4,477 -17,775 -7,353 -21,802 -2,364 -2,258 -7,497 4,314 -4,765 -4,612 -2,352 -14,375 -7,048 -18,776 -13,643 -8,749 8,011 -60,937 22,143 -136,122 -31,884 25,200 17,472 10,064 7,923 -9,076 -8,824 -11,459 -9,012 -2,619 2,256 -4,320 -6,269 20,423 11,246 3,430 -2,466 -14,459 -5,479 -18,795 -11,932 -18,525 -4,128 -19,399 -8,946 -27,003 -4,285 -14,207 -10,963 -26,741 -29,544 -25,032 -24,302 0,000 -4,768 236,161 -68,150
8,597 -6,583 -14,688 -15,096 -29,805 -24,498 -21,735 -19,666 -14,812 -11,463 -0,996 -0,883 -14,645 -11,725 -10,273 -4,477 1,359 -1,251 10,655 1,307 5,264 4,357 2,013 0,829 0,240 -3,851 9,743 19,186 -59,647 50,970 -109,629 -11,915 30,710 19,566 10,827 6,421 -10,027 -12,172 -9,926 -8,844 0,199 1,735 -3,393 -5,520 34,193 20,719 9,801 2,253 -10,563 -6,591 -12,204 -10,109 -9,426 0,514 -9,776 -5,697 -8,681 -7,040 -0,674 -5,502 -11,213 -18,837 -17,120 -16,380 0,000 6,405 217,079 -70,406
12,417 -7,773 -3,885 -7,795 -21,269 -12,917 -11,567 -6,148 0,924 3,432 0,194 -1,403 -11,120 -3,495 -6,734 2,645 -6,693 1,562 5,932 -3,558 0,874 -2,696 -1,297 -8,010 -2,103 2,222 4,916 19,878 -89,432 61,421 -122,663 -38,196 3,286 -8,977 -14,263 -17,280 -27,530 -26,949 -22,293 -17,728 -6,985 1,410 -16,987 -17,190 19,757 3,138 1,876 -5,911 -12,263 -4,019 -6,337 -1,853 5,813 22,062 2,146 6,111 8,841 18,416 16,761 14,275 17,135 20,693 6,772 19,343 0,000 -4,265 259,614 -95,942
5,637 -12,743 6,607 0,636 -8,312 3,157 0,302 6,295 13,632 16,262 -8,277 -6,991 -12,715 0,193 -8,227 4,865 -15,922 -1,638 -4,491 -14,281 -13,311 -14,358 -22,755 -24,099 -17,007 -9,438 -9,489 5,619 -134,937 30,142 -171,250 -80,701 -24,196 -33,891 -34,378 -33,786 -39,957 -37,002 -31,341 -26,104 -9,108 -0,421 -28,932 -26,240 -4,680 -19,013 -11,273 -16,496 -17,126 -1,303 -7,576 1,217 12,392 31,902 1,924 8,837 14,579 30,437 18,138 22,989 38,752 39,330 21,681 44,178 0,000 -38,828 315,924 -101,573
-1,288 -17,507 3,579 -4,239 -8,748 1,001 -0,636 3,454 7,723 14,298 -8,757 -12,285 -11,275 -4,138 -7,039 3,878 -14,975 -4,652 -5,368 -14,357 -14,162 -13,133 -24,902 -27,423 -13,416 -13,668 -13,050 5,332 -150,228 12,204 -186,617 -75,242 -14,827 -24,387 -24,070 -24,549 -30,768 -30,014 -24,596 -20,467 -7,301 3,523 -22,387 -21,873 -0,831 -19,444 -7,778 -17,214 -15,872 -0,544 -9,389 -2,804 6,273 22,530 -4,403 -6,789 8,972 16,874 7,714 8,519 34,078 22,139 7,674 28,771 0,000 -41,617 312,404 -84,028
0,217 -15,729 -6,842 -15,282 -19,533 -14,643 -10,630 -7,690 -4,777 3,464 -1,815 -10,345 -9,859 -7,820 -2,450 5,008 -5,558 -1,177 5,013 -3,164 0,642 -4,071 -5,295 -15,528 4,398 0,588 0,593 21,810 -135,834 35,962 -162,828 -32,476 17,811 5,490 1,504 -2,068 -12,302 -14,062 -10,075 -6,739 -4,068 12,276 -6,902 -10,600 24,449 1,074 6,528 -8,800 -8,989 -3,922 -7,080 -5,358 -0,842 11,543 -6,752 -7,444 4,794 1,722 -1,551 -9,191 10,852 -0,986 -13,213 -1,564 0,000 -4,191 257,544 -73,990
11,228 -13,545 -5,081 -19,801 -21,627 -19,499 -13,585 -11,814 -3,613 -0,395 7,774 -8,521 -4,266 -8,679 3,664 4,412 -0,715 3,892 12,557 2,507 14,093 -0,306 10,900 -6,314 12,895 8,641 15,446 30,492 -114,742 61,892 -155,649 -24,781 32,093 15,895 11,243 3,923 -7,038 -10,685 -5,646 -3,774 1,323 14,176 1,133 -9,494 42,684 7,047 17,105 -6,211 -1,727 -6,253 -1,638 -5,044 3,645 10,900 0,256 -3,927 4,069 -1,357 1,981 -10,467 4,064 -2,683 -15,537 -9,282 0,000 27,295 226,564 -95,204
10,348 -13,998 5,888 -11,702 -10,693 -6,632 -2,767 -0,028 11,950 14,740 7,282 -8,199 -2,695 -2,386 9,300 11,056 -7,519 5,105 6,404 -5,315 7,310 -3,898 1,907 -11,656 4,157 7,450 12,489 28,726 -107,810 39,560 -162,468 -51,913 14,908 -1,563 -1,020 -5,967 -12,237 -14,726 -5,203 -3,948 10,331 23,001 -4,302 -14,092 28,767 -5,791 10,489 -10,159 -4,503 -3,096 -0,824 -2,360 10,816 20,889 0,568 -1,178 5,831 8,744 3,512 -3,737 17,171 13,176 -9,837 9,437 0,000 34,720 249,621 -99,184
1,279 -14,678 13,403 -3,909 1,444 1,851 7,574 10,570 24,800 29,931 4,393 -8,568 0,205 0,452 10,694 19,244 -11,907 3,341 0,272 -13,186 -1,350 -11,546 -10,268 -18,949 -8,161 1,313 7,010 27,955 -98,982 -9,125 -150,789 -75,832 -0,604 -12,599 -8,878 -11,195 -12,767 -15,408 -1,726 -0,389 16,783 35,635 -6,549 -14,373 13,996 -12,672 3,331 -11,311 -2,924 -1,293 0,875 0,261 16,233 27,652 1,888 0,193 12,378 18,368 5,332 -0,572 18,738 27,503 -4,057 26,904 0,000 52,547 259,948 -72,450
7,122 -14,729 17,927 -17,508 1,878 -9,881 8,611 3,954 22,815 24,465 17,354 -15,758 9,485 -3,630 12,588 14,650 -6,805 6,326 10,261 -7,853 14,196 -11,587 6,850 -14,456 3,550 13,232 26,948 34,409 -72,132 20,661 -114,338 -69,043 9,179 -9,903 -2,600 -11,560 -9,269 -17,572 0,424 -1,510 21,061 35,414 4,535 -16,714 31,393 -12,796 21,613 -15,041 9,131 -3,089 12,243 0,722 26,767 26,855 18,110 -0,631 25,891 22,848 22,203 2,503 15,786 37,498 10,744 36,744 0,000 67,575 214,572 -90,159
18,751 -12,196 21,817 -31,869 0,789 -24,442 7,881 -6,688 18,414 16,896 33,326 -23,405 20,327 -13,344 22,294 3,274 0,496 10,713 22,841 -0,261 36,163 -8,156 32,340 -8,347 19,518 23,189 48,565 42,086 -36,057 49,679 -104,463 -63,491 21,481 -5,214 5,731 -12,099 -6,187 -21,538 3,334 -4,515 25,022 33,987 17,447 -20,718 53,795 -11,094 43,294 -17,524 21,680 -7,591 25,291 -4,216 36,295 25,030 35,686 -4,944 38,496 11,347 39,858 1,699 20,026 42,686 17,706 40,078 0,000 82,281 169,636 -108,883
20,819 -7,030 28,413 -30,390 6,133 -20,474 9,320 -6,987 17,679 16,439 34,182 -21,597 21,654 -9,826 19,065 5,043 0,604 8,787 23,015 -1,625 37,828 -8,382 28,163 -6,678 17,405 17,992 42,102 35,669 -20,416 48,293 -132,309 -76,796 21,617 -4,153 6,523 -9,985 -6,961 -23,360 1,151 -8,727 20,599 32,392 19,492 -22,390 51,965 -15,603 43,900 -18,783 21,456 -5,555 24,058 -6,352 34,656 21,457 34,301 -3,145 28,480 8,803 33,762 1,821 21,495 34,497 13,492 32,422 0,000 68,958 174,489 -124,407
21,385 0,714 34,775 -17,475 12,704 -7,630 10,337 -2,951 13,572 10,960 25,346 -13,514 14,740 -1,834 10,297 1,805 -0,618 0,556 16,036 -5,765 23,458 -11,325 12,603 -8,242 6,603 7,441 19,531 13,383 -10,736 20,601 -164,723 -90,987 22,988 4,149 9,996 0,422 -5,028 -18,296 -2,655 -11,402 8,770 21,256 17,019 -18,106 37,985 -18,125 34,666 -15,599 14,630 -2,005 13,424 -8,324 24,428 10,121 21,626 0,493 15,179 5,035 18,405 3,123 17,656 21,243 6,204 11,270 0,000 53,485 193,217 -117,375
18,083 1,186 33,783 -10,473 15,289 -3,925 10,353 1,686 9,659 6,940 19,767 -13,355 10,635 -3,637 6,922 -1,991 -1,832 -3,609 13,319 -6,643 14,507 -17,915 4,773 -10,582 -3,614 -2,460 5,292 2,264 -2,536 -1,075 -164,402 -82,738 22,453 7,474 13,935 3,795 -0,936 -12,415 -4,626 -10,559 -0,693 13,989 14,642 -15,787 24,882 -20,053 26,048 -17,272 9,307 -7,596 6,378 -11,197 14,528 0,327 9,724 -12,092 9,605 -2,804 6,085 -2,859 5,383 8,097 -0,704 -4,896 0,000 58,334 185,370 -90,596
13,134 -2,339 22,848 -10,020 8,319 -6,204 3,486 -0,220 0,622 1,636 14,113 -14,377 4,728 -7,195 -1,506 -1,805 -3,183 -4,070 13,570 -4,398 12,294 -15,188 3,193 -9,451 -11,093 -1,212 -0,708 5,008 -2,438 -7,680 -149,545 -67,633 19,622 4,379 11,034 0,989 -3,536 -11,299 -8,318 -10,946 -8,699 7,868 9,355 -12,520 19,129 -17,028 19,766 -16,206 5,836 -8,205 2,617 -7,763 4,552 0,712 6,431 -13,171 -1,702 0,461 3,861 -6,761 -10,186 5,877 -0,177 -8,299 0,000 53,147 160,196 -65,913
5,827 -5,754 10,249 -14,482 -1,536 -9,559 -7,677 -8,685 -8,560 -7,133 5,006 -14,455 -3,787 -11,131 -8,135 -2,001 -1,288 -5,879 11,797 -2,778 8,266 -11,214 0,337 -6,808 -14,689 -1,053 -2,462 -0,050 -11,569 -18,505 -154,084 -76,722 7,238 -5,727 -0,842 -8,211 -15,262 -18,930 -18,938 -19,419 -17,075 -4,351 -0,253 -14,489 10,897 -16,549 10,919 -14,597 2,386 -5,113 -1,930 -3,985 3,624 0,792 6,820 -6,846 1,500 8,412 6,055 -1,986 -7,189 5,624 9,954 -0,804 0,000 50,291 142,487 -55,121
3,282 -9,788 9,554 -27,534 -3,858 -17,887 -12,101 -18,620 -17,945 -19,608 6,475 -23,030 -3,097 -18,285 -7,970 -13,723 0,806 -7,948 15,338 -1,807 14,730 -12,934 7,096 -11,984 -12,961 -4,752 0,652 -7,696 -21,371 -32,494 -153,903 -123,154 4,324 -10,585 -1,930 -12,273 -17,131 -23,400 -24,323 -28,533 -24,093 -15,334 4,862 -19,625 14,652 -20,510 17,349 -18,641 4,147 -9,802 -0,636 -11,795 3,075 -10,275 9,646 -12,166 4,469 -4,218 9,316 -4,159 -6,899 -0,940 15,237 -5,139 0,000 47,496 120,360 -86,467
8,399 -14,744 18,102 -48,702 -4,257 -28,233 -10,983 -26,117 -27,963 -29,519 18,615 -36,549 7,266 -23,298 -2,357 -21,791 0,801 -6,595 27,591 0,947 32,658 -15,723 24,537 -15,268 -3,608 -4,513 14,595 -6,285 -27,288 -29,351 -150,256 -203,881 23,399 -1,361 13,901 -5,331 -7,412 -18,316 -19,957 -29,599 -26,502 -18,475 20,588 -26,378 30,488 -28,642 36,438 -30,988 9,535 -17,580 6,391 -22,517 -1,920 -21,392 13,837 -25,940 5,526 -17,198 8,259 -18,680 -25,113 -12,690 16,322 -18,711 0,000 18,153 92,150 -180,894
10,128 -12,827 19,930 -39,042 1,975 -21,646 -3,588 -19,641 -19,128 -22,582 16,143 -33,524 8,503 -22,395 3,225 -20,150 -0,967 -6,552 22,352 -1,474 27,101 -20,154 19,388 -17,869 -8,280 -7,334 7,121 -10,068 -31,770 -31,848 -161,370 -174,102 25,069 0,547 15,162 -3,747 -2,506 -15,917 -13,931 -25,612 -27,230 -17,940 15,983 -24,972 22,148 -33,516 29,301 -33,638 9,000 -19,437 7,533 -20,772 -1,796 -19,299 11,124 -26,273 9,776 -18,055 4,244 -22,185 -30,481 -10,087 11,247 -19,752 0,000 19,716 95,587 -149,294
4,618 -1,811 20,016 -5,580 12,892 1,433 5,030 -2,348 -1,909 -5,176 1,200 -15,187 0,227 -12,576 -6,496 -12,919 -5,687 -8,975 2,128 -10,443 -0,055 -23,260 -9,605 -21,084 -34,275 -21,965 -21,242 -23,253 -51,533 -41,873 -159,965 -86,565 -11,195 -19,615 -12,086 -17,726 -15,323 -24,292 -21,652 -27,630 -29,220 -19,133 -7,645 -20,118 -12,281 -32,900 0,738 -24,076 1,136 -10,986 -0,168 -9,241 2,788 -6,056 4,642 -7,697 1,757 -4,379 3,466 -0,694 -12,588 6,721 11,733 -1,820 0,000 15,192 126,681 -40,157
-2,838 4,242 12,898 14,230 11,879 12,510 2,904 3,256 -2,071 -3,047 -9,271 -1,083 -10,301 -4,019 -18,822 -10,381 -5,177 -11,944 -6,738 -11,554 -16,762 -17,170 -24,511 -19,852 -47,904 -29,542 -40,704 -31,694 -68,922 -53,529 -106,021 -35,212 -30,368 -23,875 -22,392 -18,276 -21,152 -23,301 -27,555 -27,619 -29,769 -19,996 -17,274 -9,432 -29,545 -20,779 -14,060 -9,327 -7,476 -4,166 -11,029 -3,945 -4,608 -5,884 -5,132 2,584 -8,540 2,690 -0,888 10,130 -13,745 5,908 10,187 1,745 0,000 -0,645 129,629 27,311
-0,840 5,684 -4,173 8,464 -5,177 -0,030 -12,480 -8,731 -18,198 -19,931 -6,574 6,055 -11,991 -1,401 -19,919 -13,368 5,889 -12,084 4,435 4,910 -7,297 1,887 -8,195 -3,989 -25,603 -9,974 -23,336 -16,023 -40,153 -50,627 -29,021 -10,877 6,301 13,595 7,685 10,740 -2,987 -1,766 -14,307 -13,833 -23,834 -17,353 -1,683 9,183 -4,182 8,752 -2,768 7,541 -8,626 -2,963 -17,521 -5,918 -17,357 -19,385 -12,107 -3,734 -21,443 -8,137 -9,823 -2,412 -32,252 -18,132 -4,932 -25,722 0,000 -1,379 66,259 39,854
6,907 7,507 -15,175 -1,799 -17,444 -14,070 -21,803 -17,159 -27,156 -28,802 -0,370 7,090 -7,200 -7,983 -15,882 -10,251 13,893 -10,629 11,484 14,142 6,663 11,163 10,818 7,616 -4,145 8,287 -6,113 1,110 -2,088 -30,603 8,649 21,652 47,500 47,582 35,578 34,225 17,633 14,938 4,364 0,685 -16,450 -11,649 10,655 18,873 21,875 26,954 7,206 13,382 -3,023 -5,878 -15,231 -7,996 -21,834 -25,006 -11,436 -12,792 -28,465 -25,610 -15,076 -18,167 -47,450 -36,651 -25,029 -52,485 0,000 6,759 15,613 42,058
7,554 6,875 1,136 1,288 -4,846 -3,308 -10,017 -11,804 -19,636 -17,883 -3,266 1,195 -4,995 -2,714 -16,994 -8,661 5,022 -11,853 -0,112 -2,897 -0,658 -5,616 -5,193 -2,446 -22,681 -13,596 -28,223 -21,565 -21,752 -33,659 -45,849 -31,894 16,087 12,175 6,942 7,628 -3,277 -9,622 -8,984 -16,579 -27,521 -21,086 -4,194 -0,366 -0,074 -1,258 -0,512 -3,085 -1,531 -4,406 -6,925 -6,119 -13,550 -14,901 -3,495 -3,997 -15,629 -6,243 -7,603 -5,689 -29,659 -24,309 -13,560 -36,457 0,000 -50,015 60,513 -3,703
-2,735 -0,449 22,185 14,500 17,848 16,875 8,376 -1,673 -7,541 -3,884 -7,611 -8,154 -2,495 -2,360 -15,093 -17,359 -7,354 -13,224 -10,588 -19,253 -16,872 -23,621 -30,443 -27,107 -49,053 -39,918 -60,232 -52,846 -81,170 -79,226 -109,714 -111,670 -47,471 -46,978 -36,859 -33,357 -35,440 -40,593 -37,529 -41,002 -45,376 -34,635 -20,950 -22,254 -41,243 -39,228 -15,114 -19,812 -5,896 -5,590 -4,747 -9,631 -8,705 -9,524 0,478 -5,161 7,564 3,759 4,331 8,704 0,798 0,810 14,133 -3,343 0,000 -102,301 127,932 -24,470
4,682 7,388 7,544 9,009 3,988 2,981 -5,219 -11,337 -21,414 -20,915 2,972 3,610 1,645 -3,439 -11,983 -19,571 4,793 -8,008 9,538 5,098 0,649 2,577 -2,253 -4,644 -13,845 -17,767 -34,048 -28,901 -94,687 -76,668 -55,969 -86,048 -5,154 -0,951 3,319 1,556 -9,242 -7,760 -22,544 -19,744 -35,255 -29,830 5,618 0,394 -6,347 2,269 4,593 5,205 -5,299 -6,335 -10,281 -14,677 -25,298 -28,307 -4,151 -5,584 0,825 -12,181 3,848 2,012 -8,959 -20,286 8,210 -21,260 0,000 -77,697 38,034 -7,999
15,108 14,690 -34,757 -16,706 -38,103 -35,000 -37,974 -34,380 -47,111 -48,014 8,074 18,559 3,484 -11,566 -7,478 -12,289 25,334 -1,118 28,477 34,399 31,488 39,207 48,301 33,912 47,427 25,775 16,212 17,531 -44,589 2,209 67,784 25,747 71,180 71,228 56,395 47,383 26,947 29,755 10,301 12,596 -21,478 -24,910 27,989 31,277 54,503 68,105 30,260 37,144 3,775 -5,254 -7,263 -9,728 -35,889 -37,122 0,579 -2,935 -11,066 -27,985 3,978 -9,034 -27,375 -47,280 -14,496 -53,968 0,000 4,072 -106,984 17,722
-2,101 7,572 -43,857 -9,799 -37,093 -24,248 -34,538 -24,662 -36,045 -29,318 -20,675 15,864 -10,954 -8,654 -16,454 -1,336 14,124 -4,957 -3,238 8,285 3,719 20,025 13,847 15,413 17,314 11,577 -12,789 -1,025 -31,181 14,945 75,529 64,846 18,537 21,762 2,705 6,139 -4,204 -4,131 -3,457 -3,233 -36,045 -38,106 -13,620 15,282 11,173 43,548 -4,706 23,876 -1,096 2,879 -5,765 7,885 -18,289 -8,356 4,719 17,129 -9,819 -1,373 5,065 10,284 -9,798 -19,658 -10,815 -25,332 0,000 -4,714 -48,621 60,540
-14,837 10,503 8,581 49,265 24,048 44,210 17,565 24,797 13,281 24,736 -41,019 14,347 -20,912 15,392 -29,444 1,663 -18,540 -13,735 -49,941 -42,557 -61,370 -38,075 -78,918 -38,215 -86,684 -60,337 -102,802 -71,520 -95,791 -58,552 -72,319 5,120 -78,663 -62,313 -66,982 -45,839 -43,067 -42,547 -32,481 -28,526 -41,770 -36,163 -58,743 -16,828 -91,038 -36,664 -61,636 -10,790 -22,404 8,100 -18,612 12,874 -7,270 18,151 -13,762 30,129 -12,249 25,983 -11,493 30,414 7,876 14,065 1,628 18,859 0,000 -102,241 159,427 75,211
-0,867 23,537 41,062 87,021 54,608 75,767 49,016 51,584 33,093 36,287 -20,067 29,030 -6,349 29,546 -17,128 -3,197 -26,504 -9,179 -38,119 -33,898 -69,031 -35,761 -89,294 -39,486 -102,390 -79,551 -107,138 -74,660 -123,255 -83,239 -121,284 -8,649 -61,290 -37,383 -35,172 -13,208 -14,206 -9,414 -17,153 -10,483 -9,936 -9,337 -35,678 -2,262 -101,912 -40,572 -60,865 -4,306 -26,230 7,981 -24,063 1,873 -18,540 7,349 -33,534 16,817 -24,595 11,718 -30,624 18,641 -3,099 3,332 1,910 13,140 0,000 -92,699 188,796 64,919
9,473 15,612 -11,372 32,692 -4,752 13,282 5,339 14,491 -5,580 -10,182 10,144 38,314 8,669 11,271 1,950 2,054 1,466 10,819 21,035 31,343 0,654 40,087 12,493 27,333 14,512 3,992 9,952 24,010 -23,375 1,014 51,078 69,003 31,530 47,575 35,689 45,409 35,150 45,389 21,662 27,392 23,247 13,349 20,076 41,233 8,581 48,015 -1,807 38,306 -3,827 10,365 -9,633 3,013 -26,182 -13,333 -22,323 2,772 -37,307 -15,344 -22,677 -7,969 -24,563 -30,476 -15,074 -27,318 0,000 40,795 -52,538 52,282
-11,006 -14,525 -84,870 -57,216 -76,790 -69,393 -67,404 -49,854 -55,120 -55,314 -3,190 9,534 -3,333 -29,523 -10,978 6,492 29,278 13,652 43,322 57,435 53,850 74,108 85,035 56,581 93,028 81,379 84,765 86,168 113,799 69,125 181,068 117,899 70,907 69,035 45,662 40,383 29,036 37,876 24,544 25,325 9,454 0,713 28,631 43,012 86,422 96,440 32,588 47,974 10,376 0,974 0,406 5,785 -24,638 -22,941 0,168 -13,505 -24,108 -31,665 -6,317 -30,565 -52,027 -49,860 -41,990 -61,392 0,000 148,755 -223,823 46,872
-33,179 -30,572 -69,276 -66,540 -56,920 -60,437 -65,336 -58,310 -51,553 -37,488 -46,542 -33,381 -32,111 -39,374 -39,155 -2,447 17,900 -11,590 -5,727 0,196 14,761 8,181 16,104 -6,758 15,298 33,208 6,889 17,109 92,306 6,021 47,469 8,043 6,003 -4,978 -13,617 -21,764 -24,159 -26,081 -16,288 -18,763 -30,509 -30,035 -19,143 -9,192 17,692 17,320 -1,860 0,652 -3,371 -13,020 -4,673 -2,524 -12,221 -10,135 3,974 -9,410 4,615 -9,555 -0,851 -19,392 -36,143 -17,911 -22,821 -25,705 0,000 65,173 -66,231 15,999
-17,562 -8,004 31,472 11,614 36,093 25,975 23,674 6,217 17,549 27,027 -37,689 -30,428 -22,360 -11,348 -28,805 -14,142 -22,022 -22,494 -49,827 -60,016 -51,297 -72,951 -84,371 -71,453 -88,053 -67,940 -95,031 -81,214 -70,514 -70,601 -131,555 -122,712 -73,120 -75,101 -56,526 -57,081 -42,433 -56,261 -35,632 -38,019 -28,798 -27,710 -40,959 -48,546 -86,537 -81,787 -40,456 -43,769 -18,886 -17,941 -7,691 -15,282 7,752 7,063 -3,060 2,905 20,600 15,272 0,726 15,017 21,828 32,443 25,175 44,575 0,000 -92,884 175,796 -44,364
28,024 29,191 78,532 69,026 68,218 66,392 75,075 55,458 54,882 44,838 31,555 22,748 24,354 25,416 20,289 -5,001 -30,272 6,015 -17,528 -29,728 -33,632 -40,974 -48,984 -30,861 -62,521 -73,838 -67,914 -62,148 -132,434 11,309 -81,578 -31,899 -43,308 -36,182 -16,492 -12,821 3,092 -7,733 -1,753 -0,266 5,673 1,247 -0,356 -14,686 -58,577 -48,565 -15,733 -18,293 -5,858 0,926 2,731 -5,281 10,179 6,950 3,345 12,989 21,455 18,726 13,886 31,657 32,652 27,508 38,385 50,392 0,000 -69,028 126,034 -51,484
42,923 29,373 7,018 38,067 -2,403 13,441 19,313 25,486 10,956 -3,488 60,824 53,633 38,430 24,256 41,290 6,813 4,183 33,033 36,871 40,689 33,767 52,688 59,669 51,520 39,760 15,822 38,131 39,535 -2,317 141,493 102,304 165,277 43,468 45,461 40,586 39,756 39,149 43,749 30,439 35,715 22,316 18,879 31,033 42,328 47,505 59,813 26,914 39,512 16,281 21,961 10,913 19,928 -4,597 3,485 15,216 14,601 0,580 -0,451 20,272 12,303 -9,539 -10,682 5,666 -3,791 0,000 121,963 -115,104 16,401
-4,843 -10,765 -71,010 -22,445 -63,790 -35,733 -55,643 -26,007 -42,604 -38,375 -3,631 18,000 -7,721 -4,681 -7,071 8,622 22,449 13,654 23,419 39,771 32,152 63,260 59,181 44,383 47,691 60,114 47,602 65,912 118,371 108,734 128,463 172,998 42,795 40,470 23,109 23,164 9,955 26,808 11,013 17,641 -2,029 6,609 1,317 41,621 52,677 73,717 10,991 44,149 5,194 17,906 -6,455 25,573 -21,858 3,429 -0,692 3,601 -35,589 -11,351 -8,680 -19,544 -51,212 -28,056 -33,805 -45,824 0,000 206,071 -157,420 64,936
-49,888 -39,683 -41,911 -34,270 -28,425 -16,177 -42,207 -24,835 -29,467 -9,631 -67,607 -38,121 -49,056 -22,563 -54,200 -0,644 -3,429 -24,051 -31,409 -27,520 -33,113 -24,118 -45,731 -40,708 -35,880 4,670 -43,418 -11,197 85,984 -52,802 -75,272 -48,330 -32,673 -33,121 -31,974 -28,433 -31,510 -23,654 -25,775 -20,208 -24,246 -7,568 -35,876 -14,003 -43,692 -26,705 -34,564 -13,476 -26,355 -10,467 -28,368 -3,097 -22,400 -0,975 -31,127 -18,407 -38,286 -9,718 -44,336 -33,859 -43,274 -10,344 -33,772 -30,458 0,000 63,680 42,839 -1,401
-25,937 -25,642 35,996 -12,017 35,731 14,411 23,957 5,631 17,555 24,817 -35,824 -50,574 -21,425 -22,533 -29,987 -15,458 -26,337 -22,546 -32,167 -51,932 -45,405 -75,783 -76,782 -73,512 -70,809 -51,277 -70,413 -60,316 -17,740 -83,689 -215,247 -190,945 -54,070 -61,650 -36,226 -41,730 -23,675 -37,989 -25,269 -27,250 -11,887 -7,832 -18,418 -50,519 -74,946 -92,194 -29,453 -55,783 -22,793 -30,014 -10,374 -28,285 3,274 -6,289 -17,379 -26,002 12,917 -1,645 -17,262 -17,080 8,967 24,138 21,378 29,261 0,000 -62,947 133,956 -115,336
28,552 7,139 42,304 -10,093 25,913 -2,169 38,108 6,078 24,368 9,614 41,544 -13,482 27,750 -13,178 26,416 -18,557 -12,088 16,857 21,210 0,127 19,995 -18,659 17,815 -8,268 7,524 -22,771 16,920 -6,506 -28,780 72,027 -105,142 -80,023 2,028 -14,428 4,699 -10,675 12,044 -9,717 4,638 -2,711 12,751 -0,623 23,854 -27,020 9,758 -31,830 24,161 -29,238 12,282 -15,587 26,018 -17,774 25,652 -4,311 28,756 -5,945 48,145 1,718 41,555 12,036 42,443 30,556 57,721 55,013 0,000 4,122 -27,146 -147,892
31,318 11,196 -24,690 -25,346 -33,435 -31,531 -11,322 -17,963 -8,699 -24,825 47,130 20,518 25,866 -2,031 36,004 -8,743 13,258 36,890 41,908 41,639 56,790 53,436 85,499 53,211 73,356 33,461 77,341 54,946 57,986 187,555 64,971 122,813 42,119 31,570 22,890 16,530 22,472 17,557 22,001 17,264 16,241 2,956 24,709 17,678 72,138 55,045 38,718 21,160 23,516 13,327 25,282 9,192 13,519 -1,390 31,129 12,118 23,580 -2,575 39,204 9,367 7,595 -9,449 14,699 9,027 0,000 150,910 -170,367 -56,354
-11,562 -1,595 -57,354 -4,918 -42,921 -12,284 -37,681 -15,365 -25,274 -22,054 -15,611 20,909 -12,486 4,242 -8,090 -0,593 13,204 9,556 -3,707 14,117 3,586 38,854 25,528 25,401 19,185 26,661 10,101 26,029 96,473 88,101 62,194 182,800 20,298 30,296 8,319 20,959 9,076 22,782 13,483 18,542 0,892 5,583 -11,688 35,330 20,964 56,291 -9,925 36,416 -2,668 20,848 -12,488 15,781 -20,177 -4,292 -12,450 1,874 -30,553 -15,811 -15,863 -15,702 -49,525 -40,872 -47,989 -46,536 0,000 179,734 -86,930 87,870
-32,220 -7,158 -15,752 26,958 3,800 24,715 -5,883 11,697 -4,337 9,028 -49,910 -1,249 -29,042 3,168 -37,233 -3,467 -7,967 -21,196 -39,110 -28,887 -54,859 -23,913 -64,786 -36,586 -63,543 -27,277 -76,274 -37,703 29,009 -68,591 -54,039 46,970 -18,023 -1,190 -6,957 8,470 -1,335 8,412 -2,534 6,941 -10,481 6,123 -26,349 11,779 -58,770 -12,010 -45,004 4,405 -24,711 0,979 -33,886 -2,898 -32,676 -9,573 -40,315 -20,154 -50,728 -13,824 -48,122 -25,140 -49,076 -26,321 -42,557 -36,569 0,000 27,084 69,256 96,129
-2,577 1,819 35,408 21,214 33,701 20,346 28,979 19,414 15,643 19,486 -11,020 -10,777 -3,914 -4,541 -16,898 -8,832 -15,331 -12,376 -13,936 -25,381 -32,573 -45,772 -53,673 -37,260 -56,884 -41,126 -62,376 -42,773 -41,114 -87,987 -100,151 -97,417 -28,514 -28,041 -12,302 -15,181 -6,177 -15,157 -12,761 -8,421 -14,564 -5,855 -4,607 -22,444 -51,197 -46,759 -17,363 -25,858 -12,082 -21,217 -10,801 -17,600 -10,713 -9,219 -12,043 -10,439 -20,588 -0,141 -13,580 -3,861 -0,280 11,311 14,314 12,486 0,000 -117,783 66,257 -15,951
28,559 4,884 35,854 -11,132 17,464 -7,267 21,778 2,072 11,867 2,444 34,771 -11,413 21,801 -14,160 16,924 -10,502 -5,439 13,150 22,195 2,537 24,411 -15,182 20,937 -2,676 7,424 -14,892 9,362 -1,819 -40,479 21,748 -66,751 -98,313 -19,086 -37,224 -17,129 -36,114 -15,913 -32,259 -17,131 -20,827 -15,335 -19,294 8,065 -32,531 8,720 -31,181 22,248 -29,550 11,648 -16,082 20,906 -8,243 20,369 5,748 36,918 7,918 39,598 12,962 46,151 23,635 45,884 40,752 59,257 52,448 0,000 -81,485 -33,243 -99,198
17,347 -1,916 0,037 -20,368 -9,076 -11,288 -6,570 -11,643 -10,038 -15,500 19,773 -8,327 13,124 -11,616 14,407 -10,463 1,591 11,462 13,547 7,587 26,735 6,057 36,684 3,598 22,434 -4,240 19,158 6,919 -23,822 77,537 -47,356 -16,245 -13,015 -28,553 -21,224 -31,081 -22,428 -26,338 -19,404 -23,641 -19,433 -24,867 -7,395 -17,892 18,289 -10,007 12,601 -15,011 11,859 3,542 17,272 5,449 14,000 11,252 36,295 15,395 43,291 10,505 45,301 22,241 32,928 24,703 42,968 36,603 0,000 28,359 -48,540 -69,745
-11,647 -3,045 -22,892 1,919 -13,147 5,999 -16,477 -6,373 -22,631 -15,231 -17,765 3,416 -9,856 -0,325 -14,608 -8,851 0,376 -7,589 -12,958 -2,786 -13,727 2,362 -4,944 -8,020 -11,329 -10,458 -21,666 -12,393 -14,612 20,047 -23,382 62,909 9,964 16,939 5,867 18,951 7,522 14,940 3,070 5,050 -5,178 -4,092 -8,057 16,302 -8,275 10,680 -15,591 8,399 -8,221 8,083 -15,447 -2,485 -26,145 -14,054 -16,243 -7,117 -22,417 -24,623 -21,768 -20,558 -37,044 -39,356 -32,601 -40,527 0,000 52,035 -15,109 28,686
-20,993 4,301 -27,840 16,307 -11,073 3,982 -15,279 -3,523 -20,148 -11,480 -24,505 13,334 -14,830 -0,471 -25,083 -8,074 4,663 -11,960 -10,788 3,026 -25,667 5,793 -19,910 -1,676 -23,251 -5,474 -30,764 -5,846 -1,292 -25,605 28,149 103,497 39,255 58,514 39,646 59,262 41,049 45,458 25,708 34,331 11,510 19,578 10,544 38,001 -12,094 33,038 -17,300 25,167 -16,318 -2,247 -31,807 -15,002 -47,945 -36,528 -46,815 -28,195 -63,222 -50,392 -60,619 -52,911 -80,146 -73,902 -72,326 -87,348 0,000 -13,422 -43,631 90,135
-5,889 4,279 -23,431 2,097 -15,699 -15,103 -15,973 -9,872 -20,383 -15,636 -4,394 9,619 -6,348 -14,340 -11,803 -6,490 9,839 -0,424 10,255 15,723 0,908 14,041 8,968 11,534 2,534 12,526 -2,171 14,684 9,791 -12,904 60,219 42,329 26,627 33,654 24,173 29,734 22,763 20,100 8,594 17,925 -3,307 4,312 12,588 20,985 4,528 30,560 -0,187 17,721 -4,946 -8,291 -12,289 -8,829 -25,403 -21,349 -16,383 -14,832 -25,219 -24,793 -19,961 -24,927 -37,929 -28,570 -21,699 -42,089 0,000 -72,974 -92,290 43,656
7,419 -6,046 -8,725 -13,769 -8,879 -14,789 -10,958 -7,953 -15,157 -10,201 6,158 -6,918 1,885 -17,989 -0,535 -1,770 1,824 5,503 11,579 6,602 14,964 3,538 22,646 4,974 15,242 7,407 5,129 7,434 -1,812 10,439 21,661 -57,916 -26,408 -37,980 -30,440 -37,167 -26,429 -29,899 -28,814 -23,197 -32,991 -27,595 -11,810 -16,612 0,120 -8,365 2,470 -9,665 5,221 -3,617 11,907 6,453 7,687 11,291 25,993 12,270 28,197 20,815 35,851 25,732 30,090 37,385 46,718 35,216 0,000 -73,455 -63,164 -41,014
-1,734 -10,490 5,118 -5,835 7,757 8,713 0,337 5,350 -3,139 5,269 -8,990 -14,673 -3,638 -3,280 -6,361 -0,330 -13,402 -5,050 -14,079 -17,187 -10,358 -20,837 -9,674 -20,344 -10,130 -22,457 -29,265 -25,292 -51,776 -17,063 -50,741 -93,381 -62,903 -70,219 -58,118 -58,253 -45,359 -43,298 -42,232 -35,971 -40,258 -33,912 -32,149 -30,163 -32,108 -41,603 -16,297 -24,280 -3,116 1,659 6,715 10,282 11,411 22,464 24,191 21,079 34,094 35,496 39,186 39,240 51,461 52,861 57,001 59,789 0,000 -78,726 22,033 -44,607
